#Distance(A) Planar-Average-Potential(eV)/Densitiy(e/A)
  0.0000            -0.00002
  0.0670            -0.00002
  0.1339            -0.00002
  0.2009            -0.00003
  0.2679            -0.00003
  0.3348            -0.00003
  0.4018            -0.00003
  0.4688            -0.00003
  0.5357            -0.00003
  0.6027            -0.00003
  0.6696            -0.00003
  0.7366            -0.00003
  0.8036            -0.00003
  0.8705            -0.00004
  0.9375            -0.00004
  1.0045            -0.00004
  1.0714            -0.00004
  1.1384            -0.00004
  1.2054            -0.00004
  1.2723            -0.00004
  1.3393            -0.00004
  1.4062            -0.00004
  1.4732            -0.00004
  1.5402            -0.00004
  1.6071            -0.00004
  1.6741            -0.00004
  1.7411            -0.00004
  1.8080            -0.00004
  1.8750            -0.00004
  1.9420            -0.00003
  2.0089            -0.00003
  2.0759            -0.00003
  2.1429            -0.00003
  2.2098            -0.00003
  2.2768            -0.00003
  2.3438            -0.00003
  2.4107            -0.00003
  2.4777            -0.00002
  2.5446            -0.00002
  2.6116            -0.00002
  2.6786            -0.00002
  2.7455            -0.00002
  2.8125            -0.00002
  2.8795            -0.00001
  2.9464            -0.00001
  3.0134            -0.00001
  3.0804            -0.00001
  3.1473            -0.00000
  3.2143            -0.00000
  3.2812             0.00000
  3.3482             0.00000
  3.4152             0.00001
  3.4821             0.00001
  3.5491             0.00001
  3.6161             0.00001
  3.6830             0.00002
  3.7500             0.00002
  3.8170             0.00002
  3.8839             0.00002
  3.9509             0.00003
  4.0179             0.00003
  4.0848             0.00003
  4.1518             0.00004
  4.2188             0.00004
  4.2857             0.00004
  4.3527             0.00004
  4.4196             0.00004
  4.4866             0.00005
  4.5536             0.00005
  4.6205             0.00005
  4.6875             0.00005
  4.7545             0.00006
  4.8214             0.00006
  4.8884             0.00006
  4.9554             0.00006
  5.0223             0.00006
  5.0893             0.00006
  5.1562             0.00006
  5.2232             0.00007
  5.2902             0.00007
  5.3571             0.00007
  5.4241             0.00007
  5.4911             0.00007
  5.5580             0.00007
  5.6250             0.00007
  5.6920             0.00007
  5.7589             0.00007
  5.8259             0.00007
  5.8929             0.00007
  5.9598             0.00007
  6.0268             0.00007
  6.0938             0.00007
  6.1607             0.00007
  6.2277             0.00007
  6.2946             0.00007
  6.3616             0.00006
  6.4286             0.00006
  6.4955             0.00006
  6.5625             0.00006
  6.6295             0.00006
  6.6964             0.00006
  6.7634             0.00005
  6.8304             0.00005
  6.8973             0.00005
  6.9643             0.00005
  7.0312             0.00004
  7.0982             0.00004
  7.1652             0.00004
  7.2321             0.00004
  7.2991             0.00003
  7.3661             0.00003
  7.4330             0.00003
  7.5000             0.00003
  7.5670             0.00002
  7.6339             0.00002
  7.7009             0.00002
  7.7679             0.00001
  7.8348             0.00001
  7.9018             0.00001
  7.9688             0.00001
  8.0357             0.00000
  8.1027            -0.00000
  8.1696            -0.00000
  8.2366            -0.00001
  8.3036            -0.00001
  8.3705            -0.00001
  8.4375            -0.00001
  8.5045            -0.00002
  8.5714            -0.00002
  8.6384            -0.00002
  8.7054            -0.00002
  8.7723            -0.00002
  8.8393            -0.00003
  8.9062            -0.00003
  8.9732            -0.00003
  9.0402            -0.00003
  9.1071            -0.00003
  9.1741            -0.00003
  9.2411            -0.00003
  9.3080            -0.00003
  9.3750            -0.00003
  9.4420            -0.00003
  9.5089            -0.00002
  9.5759            -0.00002
  9.6429            -0.00001
  9.7098            -0.00000
  9.7768             0.00001
  9.8438             0.00002
  9.9107             0.00003
  9.9777             0.00005
 10.0446             0.00008
 10.1116             0.00011
 10.1786             0.00016
 10.2455             0.00022
 10.3125             0.00029
 10.3795             0.00037
 10.4464             0.00047
 10.5134             0.00061
 10.5804             0.00079
 10.6473             0.00102
 10.7143             0.00132
 10.7812             0.00170
 10.8482             0.00216
 10.9152             0.00274
 10.9821             0.00347
 11.0491             0.00440
 11.1161             0.00560
 11.1830             0.00714
 11.2500             0.00911
 11.3170             0.01158
 11.3839             0.01468
 11.4509             0.01856
 11.5179             0.02346
 11.5848             0.02968
 11.6518             0.03760
 11.7188             0.04769
 11.7857             0.06048
 11.8527             0.07660
 11.9196             0.09683
 11.9866             0.12223
 12.0536             0.15423
 12.1205             0.19469
 12.1875             0.24595
 12.2545             0.31087
 12.3214             0.39291
 12.3884             0.49629
 12.4554             0.62639
 12.5223             0.79021
 12.5893             0.99695
 12.6562             1.25849
 12.7232             1.58978
 12.7902             2.00930
 12.8571             2.53970
 12.9241             3.20901
 12.9911             4.05254
 13.0580             5.11528
 13.1250             6.45439
 13.1920             8.14112
 13.2589            10.26188
 13.3259            12.91874
 13.3929            16.23032
 13.4598            20.33400
 13.5268            25.38884
 13.5938            31.57598
 13.6607            39.08953
 13.7277            48.10945
 13.7946            58.74920
 13.8616            70.99067
 13.9286            84.63656
 13.9955            99.27117
 14.0625           114.25209
 14.1295           128.75761
 14.1964           141.89450
 14.2634           152.83989
 14.3304           160.96234
 14.3973           165.86845
 14.4643           167.36870
 14.5312           165.41265
 14.5982           160.06138
 14.6652           151.52509
 14.7321           140.22885
 14.7991           126.83722
 14.8661           112.19452
 14.9330            97.19617
 15.0000            82.64773
 15.0670            69.16451
 15.1339            57.13259
 15.2009            46.72350
 15.2679            37.93488
 15.3348            30.64077
 15.4018            24.65730
 15.4688            19.79151
 15.5357            15.86569
 15.6027            12.72481
 15.6696            10.23582
 15.7366             8.28493
 15.8036             6.77580
 15.8705             5.62894
 15.9375             4.78115
 16.0045             4.18457
 16.0714             3.80484
 16.1384             3.61903
 16.2054             3.61394
 16.2723             3.78498
 16.3393             4.13577
 16.4062             4.67804
 16.4732             5.43134
 16.5402             6.42236
 16.6071             7.68383
 16.6741             9.25306
 16.7411            11.17037
 16.8080            13.47737
 16.8750            16.21419
 16.9420            19.40904
 17.0089            23.04362
 17.0759            27.03831
 17.1429            31.26143
 17.2098            35.54593
 17.2768            39.71071
 17.3438            43.58986
 17.4107            47.12094
 17.4777            50.42061
 17.5446            53.75569
 17.6116            57.46715
 17.6786            61.87006
 17.7455            67.15342
 17.8125            73.29777
 17.8795            80.03067
 17.9464            86.83548
 18.0134            93.01844
 18.0804            97.82345
 18.1473           100.57067
 18.2143           100.78665
 18.2812            98.29487
 18.3482            93.24663
 18.4152            86.08827
 18.4821            77.47718
 18.5491            68.16880
 18.6161            58.89886
 18.6830            50.28222
 18.7500            42.74161
 18.8170            36.47448
 18.8839            31.46343
 18.9509            27.53925
 19.0179            24.45431
 19.0848            21.95392
 19.1518            19.84431
 19.2188            18.04219
 19.2857            16.54777
 19.3527            15.36584
 19.4196            14.49320
 19.4866            13.92110
 19.5536            13.64225
 19.6205            13.65512
 19.6875            13.96356
 19.7545            14.57535
 19.8214            15.49908
 19.8884            16.73708
 19.9554            18.28266
 20.0223            20.12247
 20.0893            22.24124
 20.1562            24.62770
 20.2232            27.27974
 20.2902            30.20523
 20.3571            33.40329
 20.4241            36.83320
 20.4911            40.40444
 20.5580            43.97631
 20.6250            47.36641
 20.6920            50.37105
 20.7589            52.79747
 20.8259            54.50265
 20.8929            55.42825
 20.9598            55.61893
 21.0268            55.21470
 21.0938            54.41545
 21.1607            53.42667
 21.2277            52.40300
 21.2946            51.40762
 21.3616            50.40105
 21.4286            49.26147
 21.4955            47.82780
 21.5625            45.95065
 21.6295            43.53522
 21.6964            40.56491
 21.7634            37.10545
 21.8304            33.29302
 21.8973            29.30728
 21.9643            25.34005
 22.0312            21.56658
 22.0982            18.12229
 22.1652            15.08630
 22.2321            12.47412
 22.2991            10.25674
 22.3661             8.39403
 22.4330             6.84373
 22.5000             5.56397
 22.5670             4.51475
 22.6339             3.65899
 22.7009             2.96339
 22.7679             2.39899
 22.8348             1.94142
 22.9018             1.57064
 22.9688             1.27042
 23.0357             1.02760
 23.1027             0.83147
 23.1696             0.67318
 23.2366             0.54543
 23.3036             0.44221
 23.3705             0.35865
 23.4375             0.29091
 23.5045             0.23594
 23.5714             0.19135
 23.6384             0.15523
 23.7054             0.12600
 23.7723             0.10235
 23.8393             0.08318
 23.9062             0.06762
 23.9732             0.05495
 24.0402             0.04463
 24.1071             0.03623
 24.1741             0.02941
 24.2411             0.02389
 24.3080             0.01942
 24.3750             0.01580
 24.4420             0.01286
 24.5089             0.01046
 24.5759             0.00850
 24.6429             0.00690
 24.7098             0.00559
 24.7768             0.00454
 24.8438             0.00369
 24.9107             0.00300
 24.9777             0.00245
 25.0446             0.00199
 25.1116             0.00162
 25.1786             0.00131
 25.2455             0.00106
 25.3125             0.00086
 25.3795             0.00070
 25.4464             0.00057
 25.5134             0.00046
 25.5804             0.00038
 25.6473             0.00031
 25.7143             0.00025
 25.7812             0.00020
 25.8482             0.00016
 25.9152             0.00013
 25.9821             0.00011
 26.0491             0.00009
 26.1161             0.00007
 26.1830             0.00006
 26.2500             0.00005
 26.3170             0.00004
 26.3839             0.00003
 26.4509             0.00003
 26.5179             0.00003
 26.5848             0.00002
 26.6518             0.00002
 26.7188             0.00002
 26.7857             0.00002
 26.8527             0.00002
 26.9196             0.00001
 26.9866             0.00001
 27.0536             0.00001
 27.1205             0.00001
 27.1875             0.00001
 27.2545             0.00001
 27.3214             0.00001
 27.3884             0.00001
 27.4554             0.00001
 27.5223             0.00001
 27.5893             0.00001
 27.6562             0.00001
 27.7232             0.00001
 27.7902             0.00001
 27.8571             0.00001
 27.9241             0.00001
 27.9911             0.00001
 28.0580             0.00001
 28.1250             0.00001
 28.1920             0.00001
 28.2589             0.00001
 28.3259             0.00001
 28.3929             0.00001
 28.4598             0.00001
 28.5268             0.00001
 28.5938             0.00001
 28.6607             0.00001
 28.7277             0.00000
 28.7946             0.00000
 28.8616             0.00000
 28.9286             0.00000
 28.9955            -0.00000
 29.0625            -0.00000
 29.1295            -0.00000
 29.1964            -0.00000
 29.2634            -0.00001
 29.3304            -0.00001
 29.3973            -0.00001
 29.4643            -0.00001
 29.5312            -0.00001
 29.5982            -0.00001
 29.6652            -0.00001
 29.7321            -0.00002
 29.7991            -0.00002
 29.8661            -0.00002
 29.9330            -0.00002
