#Distance(A) Planar-Average-Potential(eV)/Densitiy(e/A)
  0.0000             0.00005
  0.0670             0.00005
  0.1339             0.00005
  0.2009             0.00005
  0.2679             0.00005
  0.3348             0.00004
  0.4018             0.00004
  0.4688             0.00004
  0.5357             0.00004
  0.6027             0.00004
  0.6696             0.00004
  0.7366             0.00004
  0.8036             0.00003
  0.8705             0.00003
  0.9375             0.00003
  1.0045             0.00003
  1.0714             0.00003
  1.1384             0.00002
  1.2054             0.00002
  1.2723             0.00002
  1.3393             0.00002
  1.4062             0.00002
  1.4732             0.00001
  1.5402             0.00001
  1.6071             0.00001
  1.6741             0.00001
  1.7411             0.00001
  1.8080             0.00000
  1.8750             0.00000
  1.9420            -0.00000
  2.0089            -0.00000
  2.0759            -0.00000
  2.1429            -0.00001
  2.2098            -0.00001
  2.2768            -0.00001
  2.3438            -0.00001
  2.4107            -0.00001
  2.4777            -0.00002
  2.5446            -0.00002
  2.6116            -0.00002
  2.6786            -0.00002
  2.7455            -0.00002
  2.8125            -0.00003
  2.8795            -0.00003
  2.9464            -0.00003
  3.0134            -0.00003
  3.0804            -0.00003
  3.1473            -0.00003
  3.2143            -0.00003
  3.2812            -0.00004
  3.3482            -0.00004
  3.4152            -0.00004
  3.4821            -0.00004
  3.5491            -0.00004
  3.6161            -0.00004
  3.6830            -0.00004
  3.7500            -0.00004
  3.8170            -0.00005
  3.8839            -0.00005
  3.9509            -0.00005
  4.0179            -0.00005
  4.0848            -0.00005
  4.1518            -0.00005
  4.2188            -0.00005
  4.2857            -0.00005
  4.3527            -0.00005
  4.4196            -0.00005
  4.4866            -0.00005
  4.5536            -0.00005
  4.6205            -0.00005
  4.6875            -0.00005
  4.7545            -0.00005
  4.8214            -0.00005
  4.8884            -0.00005
  4.9554            -0.00005
  5.0223            -0.00005
  5.0893            -0.00005
  5.1562            -0.00005
  5.2232            -0.00005
  5.2902            -0.00005
  5.3571            -0.00005
  5.4241            -0.00005
  5.4911            -0.00004
  5.5580            -0.00004
  5.6250            -0.00004
  5.6920            -0.00004
  5.7589            -0.00004
  5.8259            -0.00004
  5.8929            -0.00004
  5.9598            -0.00003
  6.0268            -0.00003
  6.0938            -0.00003
  6.1607            -0.00003
  6.2277            -0.00003
  6.2946            -0.00003
  6.3616            -0.00002
  6.4286            -0.00002
  6.4955            -0.00002
  6.5625            -0.00002
  6.6295            -0.00001
  6.6964            -0.00001
  6.7634            -0.00001
  6.8304            -0.00001
  6.8973            -0.00000
  6.9643            -0.00000
  7.0312             0.00000
  7.0982             0.00000
  7.1652             0.00001
  7.2321             0.00001
  7.2991             0.00001
  7.3661             0.00002
  7.4330             0.00002
  7.5000             0.00002
  7.5670             0.00002
  7.6339             0.00003
  7.7009             0.00003
  7.7679             0.00003
  7.8348             0.00004
  7.9018             0.00004
  7.9688             0.00004
  8.0357             0.00004
  8.1027             0.00005
  8.1696             0.00005
  8.2366             0.00005
  8.3036             0.00005
  8.3705             0.00006
  8.4375             0.00006
  8.5045             0.00006
  8.5714             0.00006
  8.6384             0.00006
  8.7054             0.00007
  8.7723             0.00007
  8.8393             0.00007
  8.9062             0.00007
  8.9732             0.00007
  9.0402             0.00007
  9.1071             0.00007
  9.1741             0.00007
  9.2411             0.00008
  9.3080             0.00008
  9.3750             0.00008
  9.4420             0.00008
  9.5089             0.00008
  9.5759             0.00008
  9.6429             0.00008
  9.7098             0.00008
  9.7768             0.00008
  9.8438             0.00007
  9.9107             0.00007
  9.9777             0.00007
 10.0446             0.00007
 10.1116             0.00007
 10.1786             0.00007
 10.2455             0.00007
 10.3125             0.00006
 10.3795             0.00006
 10.4464             0.00006
 10.5134             0.00006
 10.5804             0.00005
 10.6473             0.00005
 10.7143             0.00005
 10.7812             0.00005
 10.8482             0.00004
 10.9152             0.00004
 10.9821             0.00004
 11.0491             0.00003
 11.1161             0.00003
 11.1830             0.00003
 11.2500             0.00002
 11.3170             0.00002
 11.3839             0.00002
 11.4509             0.00001
 11.5179             0.00001
 11.5848             0.00001
 11.6518             0.00000
 11.7188            -0.00000
 11.7857            -0.00000
 11.8527            -0.00001
 11.9196            -0.00001
 11.9866            -0.00001
 12.0536            -0.00001
 12.1205            -0.00001
 12.1875            -0.00001
 12.2545            -0.00001
 12.3214            -0.00001
 12.3884            -0.00000
 12.4554             0.00000
 12.5223             0.00001
 12.5893             0.00002
 12.6562             0.00003
 12.7232             0.00005
 12.7902             0.00007
 12.8571             0.00009
 12.9241             0.00012
 12.9911             0.00016
 13.0580             0.00021
 13.1250             0.00027
 13.1920             0.00035
 13.2589             0.00044
 13.3259             0.00055
 13.3929             0.00069
 13.4598             0.00086
 13.5268             0.00107
 13.5938             0.00133
 13.6607             0.00166
 13.7277             0.00205
 13.7946             0.00254
 13.8616             0.00312
 13.9286             0.00385
 13.9955             0.00475
 14.0625             0.00586
 14.1295             0.00723
 14.1964             0.00893
 14.2634             0.01101
 14.3304             0.01355
 14.3973             0.01667
 14.4643             0.02051
 14.5312             0.02524
 14.5982             0.03110
 14.6652             0.03833
 14.7321             0.04725
 14.7991             0.05822
 14.8661             0.07169
 14.9330             0.08825
 15.0000             0.10864
 15.0670             0.13380
 15.1339             0.16490
 15.2009             0.20333
 15.2679             0.25081
 15.3348             0.30937
 15.4018             0.38159
 15.4688             0.47067
 15.5357             0.58071
 15.6027             0.71687
 15.6696             0.88553
 15.7366             1.09450
 15.8036             1.35321
 15.8705             1.67311
 15.9375             2.06815
 16.0045             2.55553
 16.0714             3.15639
 16.1384             3.89647
 16.2054             4.80639
 16.2723             5.92145
 16.3393             7.28108
 16.4062             8.92791
 16.4732            10.90680
 16.5402            13.26347
 16.6071            16.04214
 16.6741            19.27492
 16.7411            22.95350
 16.8080            27.01003
 16.8750            31.32184
 16.9420            35.72481
 17.0089            40.05539
 17.0759            44.23874
 17.1429            48.32847
 17.2098            52.48953
 17.2768            56.94786
 17.3438            61.92162
 17.4107            67.54431
 17.4777            73.79778
 17.5446            80.46717
 17.6116            87.13191
 17.6786            93.20283
 17.7455            98.00630
 17.8125           100.90102
 17.8795           101.40242
 17.9464            99.28379
 18.0134            94.62827
 18.0804            87.81904
 18.1473            79.47119
 18.2143            70.32404
 18.2812            61.12000
 18.3482            52.49514
 18.4152            44.89941
 18.4821            38.55688
 18.5491            33.46820
 18.6161            29.45698
 18.6830            26.25765
 18.7500            23.60935
 18.8170            21.32883
 18.8839            19.34279
 18.9509            17.63871
 19.0179            16.21959
 19.0848            15.08812
 19.1518            14.24401
 19.2188            13.68298
 19.2857            13.40120
 19.3527            13.39947
 19.4196            13.68319
 19.4866            14.26137
 19.5536            15.14437
 19.6205            16.33760
 19.6875            17.83757
 19.7545            19.63342
 19.8214            21.71113
 19.8884            24.05916
 19.9554            26.67388
 20.0223            29.56172
 20.0893            32.72565
 20.1562            36.13316
 20.2232            39.70267
 20.2902            43.30196
 20.3571            46.75479
 20.4241            49.85903
 20.4911            52.41683
 20.5580            54.27278
 20.6250            55.35044
 20.6920            55.67476
 20.7589            55.36968
 20.8259            54.62771
 20.8929            53.65824
 20.9598            52.62993
 21.0268            51.62593
 21.0938            50.62623
 21.1607            49.52227
 21.2277            48.15674
 21.2946            46.37423
 21.3616            44.06675
 21.4286            41.20155
 21.4955            37.82867
 21.5625            34.07216
 21.6295            30.10542
 21.6964            26.12014
 21.7634            22.29665
 21.8304            18.77957
 21.8973            15.65987
 21.9643            12.96521
 22.0312            10.67246
 22.0982             8.74250
 22.1652             7.13327
 22.2321             5.80273
 22.2991             4.71043
 22.3661             3.81866
 22.4330             3.09333
 22.5000             2.50460
 22.5670             2.02721
 22.6339             1.64029
 22.7009             1.32691
 22.7679             1.07337
 22.8348             0.86851
 22.9018             0.70315
 22.9688             0.56968
 23.0357             0.46186
 23.1027             0.37461
 23.1696             0.30388
 23.2366             0.24649
 23.3036             0.19993
 23.3705             0.16219
 23.4375             0.13164
 23.5045             0.10692
 23.5714             0.08690
 23.6384             0.07064
 23.7054             0.05742
 23.7723             0.04664
 23.8393             0.03786
 23.9062             0.03073
 23.9732             0.02495
 24.0402             0.02028
 24.1071             0.01649
 24.1741             0.01341
 24.2411             0.01091
 24.3080             0.00886
 24.3750             0.00718
 24.4420             0.00582
 24.5089             0.00472
 24.5759             0.00383
 24.6429             0.00311
 24.7098             0.00252
 24.7768             0.00205
 24.8438             0.00166
 24.9107             0.00134
 24.9777             0.00108
 25.0446             0.00086
 25.1116             0.00069
 25.1786             0.00056
 25.2455             0.00045
 25.3125             0.00036
 25.3795             0.00029
 25.4464             0.00023
 25.5134             0.00018
 25.5804             0.00014
 25.6473             0.00010
 25.7143             0.00008
 25.7812             0.00006
 25.8482             0.00005
 25.9152             0.00003
 25.9821             0.00002
 26.0491             0.00001
 26.1161             0.00001
 26.1830             0.00000
 26.2500             0.00000
 26.3170            -0.00000
 26.3839            -0.00000
 26.4509            -0.00000
 26.5179            -0.00000
 26.5848            -0.00000
 26.6518            -0.00000
 26.7188             0.00000
 26.7857             0.00000
 26.8527             0.00000
 26.9196             0.00001
 26.9866             0.00001
 27.0536             0.00001
 27.1205             0.00001
 27.1875             0.00001
 27.2545             0.00002
 27.3214             0.00002
 27.3884             0.00002
 27.4554             0.00002
 27.5223             0.00003
 27.5893             0.00003
 27.6562             0.00003
 27.7232             0.00003
 27.7902             0.00003
 27.8571             0.00004
 27.9241             0.00004
 27.9911             0.00004
 28.0580             0.00004
 28.1250             0.00004
 28.1920             0.00004
 28.2589             0.00005
 28.3259             0.00005
 28.3929             0.00005
 28.4598             0.00005
 28.5268             0.00005
 28.5938             0.00005
 28.6607             0.00005
 28.7277             0.00005
 28.7946             0.00005
 28.8616             0.00006
 28.9286             0.00006
 28.9955             0.00006
 29.0625             0.00006
 29.1295             0.00006
 29.1964             0.00006
 29.2634             0.00006
 29.3304             0.00006
 29.3973             0.00006
 29.4643             0.00006
 29.5312             0.00006
 29.5982             0.00006
 29.6652             0.00005
 29.7321             0.00005
 29.7991             0.00005
 29.8661             0.00005
 29.9330             0.00005
