#Distance(A) Planar-Average-Potential(eV)/Densitiy(e/A)
  0.0000             3.44025
  0.0661             3.41459
  0.1323             3.39297
  0.1984             3.37855
  0.2646             3.37353
  0.3307             3.37351
  0.3968             3.37353
  0.4630             3.37351
  0.5291             3.37353
  0.5952             3.37351
  0.6614             3.37353
  0.7275             3.37351
  0.7937             3.37353
  0.8598             3.37351
  0.9259             3.37353
  0.9921             3.37351
  1.0582             3.37353
  1.1243             3.37351
  1.1905             3.37353
  1.2566             3.37351
  1.3228             3.37353
  1.3889             3.37351
  1.4550             3.37353
  1.5212             3.37351
  1.5873             3.37353
  1.6534             3.37351
  1.7196             3.37353
  1.7857             3.37352
  1.8519             3.37353
  1.9180             3.37352
  1.9841             3.37354
  2.0503             3.37353
  2.1164             3.37355
  2.1825             3.37354
  2.2487             3.37355
  2.3148             3.37354
  2.3810             3.37356
  2.4471             3.37356
  2.5132             3.37358
  2.5794             3.37357
  2.6455             3.37359
  2.7116             3.37358
  2.7778             3.37360
  2.8439             3.37360
  2.9101             3.37362
  2.9762             3.37362
  3.0423             3.37364
  3.1085             3.37364
  3.1746             3.37367
  3.2407             3.37367
  3.3069             3.37369
  3.3730             3.37369
  3.4392             3.37372
  3.5053             3.37372
  3.5714             3.37375
  3.6376             3.37376
  3.7037             3.37378
  3.7698             3.37379
  3.8360             3.37382
  3.9021             3.37383
  3.9683             3.37386
  4.0344             3.37388
  4.1005             3.37391
  4.1667             3.37392
  4.2328             3.37395
  4.2989             3.37397
  4.3651             3.37401
  4.4312             3.37403
  4.4974             3.37406
  4.5635             3.37408
  4.6296             3.37412
  4.6958             3.37414
  4.7619             3.37418
  4.8280             3.37421
  4.8942             3.37425
  4.9603             3.37428
  5.0265             3.37432
  5.0926             3.37435
  5.1587             3.37439
  5.2249             3.37442
  5.2910             3.37447
  5.3571             3.37450
  5.4233             3.37455
  5.4894             3.37459
  5.5556             3.37463
  5.6217             3.37467
  5.6878             3.37472
  5.7540             3.37476
  5.8201             3.37481
  5.8862             3.37486
  5.9524             3.37491
  6.0185             3.37496
  6.0847             3.37501
  6.1508             3.37506
  6.2169             3.37511
  6.2831             3.37516
  6.3492             3.37522
  6.4153             3.37527
  6.4815             3.37533
  6.5476             3.37539
  6.6138             3.37544
  6.6799             3.37550
  6.7460             3.37556
  6.8122             3.37562
  6.8783             3.37568
  6.9444             3.37574
  7.0106             3.37580
  7.0767             3.37587
  7.1429             3.37593
  7.2090             3.37600
  7.2751             3.37606
  7.3413             3.37613
  7.4074             3.37619
  7.4735             3.37627
  7.5397             3.37633
  7.6058             3.37640
  7.6720             3.37647
  7.7381             3.37655
  7.8042             3.37661
  7.8704             3.37669
  7.9365             3.37675
  8.0026             3.37684
  8.0688             3.37690
  8.1349             3.37699
  8.2011             3.37705
  8.2672             3.37714
  8.3333             3.37720
  8.3995             3.37729
  8.4656             3.37736
  8.5317             3.37745
  8.5979             3.37752
  8.6640             3.37761
  8.7302             3.37768
  8.7963             3.37777
  8.8624             3.37784
  8.9286             3.37794
  8.9947             3.37800
  9.0608             3.37810
  9.1270             3.37817
  9.1931             3.37827
  9.2593             3.37834
  9.3254             3.37844
  9.3915             3.37851
  9.4577             3.37862
  9.5238             3.37869
  9.5899             3.37880
  9.6561             3.37886
  9.7222             3.37897
  9.7884             3.37904
  9.8545             3.37915
  9.9206             3.37922
  9.9868             3.37934
 10.0529             3.37940
 10.1190             3.37952
 10.1852             3.37959
 10.2513             3.37971
 10.3175             3.37977
 10.3836             3.37989
 10.4497             3.37996
 10.5159             3.38008
 10.5820             3.38015
 10.6481             3.38027
 10.7143             3.38033
 10.7804             3.38046
 10.8466             3.38052
 10.9127             3.38065
 10.9788             3.38071
 11.0450             3.38084
 11.1111             3.38089
 11.1772             3.38102
 11.2434             3.38108
 11.3095             3.38121
 11.3757             3.38126
 11.4418             3.38139
 11.5079             3.38143
 11.5741             3.38156
 11.6402             3.38160
 11.7063             3.38172
 11.7725             3.38176
 11.8386             3.38188
 11.9048             3.38191
 11.9709             3.38202
 12.0370             3.38203
 12.1032             3.38214
 12.1693             3.38214
 12.2354             3.38223
 12.3016             3.38221
 12.3677             3.38228
 12.4339             3.38223
 12.5000             3.38228
 12.5661             3.38220
 12.6323             3.38221
 12.6984             3.38208
 12.7646             3.38204
 12.8307             3.38185
 12.8968             3.38174
 12.9630             3.38147
 13.0291             3.38126
 13.0952             3.38087
 13.1614             3.38054
 13.2275             3.37998
 13.2937             3.37947
 13.3598             3.37869
 13.4259             3.37792
 13.4921             3.37684
 13.5582             3.37573
 13.6243             3.37422
 13.6905             3.37262
 13.7566             3.37053
 13.8228             3.36826
 13.8889             3.36537
 13.9550             3.36215
 14.0212             3.35814
 14.0873             3.35363
 14.1534             3.34806
 14.2196             3.34174
 14.2857             3.33402
 14.3519             3.32516
 14.4180             3.31444
 14.4841             3.30206
 14.5503             3.28714
 14.6164             3.26984
 14.6825             3.24906
 14.7487             3.22486
 14.8148             3.19587
 14.8810             3.16199
 14.9471             3.12146
 15.0132             3.07395
 15.0794             3.01716
 15.1455             2.95042
 15.2116             2.87062
 15.2778             2.77664
 15.3439             2.66410
 15.4101             2.53133
 15.4762             2.37183
 15.5423             2.18361
 15.6085             1.95569
 15.6746             1.71164
 15.7407             1.46309
 15.8069             1.12008
 15.8730             0.58774
 15.9392            -0.16494
 16.0053            -1.14171
 16.0714            -2.33246
 16.1376            -3.70792
 16.2037            -5.22511
 16.2698            -6.82678
 16.3360            -8.45113
 16.4021           -10.03696
 16.4683           -11.53016
 16.5344           -12.88459
 16.6005           -14.06361
 16.6667           -15.03868
 16.7328           -15.78896
 16.7989           -16.29979
 16.8651           -16.56197
 16.9312           -16.57102
 16.9974           -16.32668
 17.0635           -15.83330
 17.1296           -15.09971
 17.1958           -14.14069
 17.2619           -12.97704
 17.3280           -11.63796
 17.3942           -10.16077
 17.4603            -8.59319
 17.5265            -6.99124
 17.5926            -5.41947
 17.6587            -3.94385
 17.7249            -2.62789
 17.7910            -1.52153
 17.8571            -0.66219
 17.9233            -0.06883
 17.9894             0.25627
 18.0556             0.37297
 18.1217             0.33928
 18.1878             0.14611
 18.2540            -0.27467
 18.3201            -0.96535
 18.3862            -1.91419
 18.4524            -3.09814
 18.5185            -4.47466
 18.5847            -5.99033
 18.6508            -7.57937
 18.7169            -9.17662
 18.7831           -10.71932
 18.8492           -12.15488
 18.9153           -13.43856
 18.9815           -14.53663
 19.0476           -15.42244
 19.1138           -16.07797
 19.1799           -16.49003
 19.2460           -16.65181
 19.3122           -16.55988
 19.3783           -16.21615
 19.4444           -15.62595
 19.5106           -14.80055
 19.5767           -13.75612
 19.6429           -12.51674
 19.7090           -11.11383
 19.7751            -9.58897
 19.8413            -7.99261
 19.9074            -6.38507
 19.9735            -4.83176
 20.0397            -3.39964
 20.1058            -2.14733
 20.1720            -1.12138
 20.2381            -0.35135
 20.3042             0.14648
 20.3704             0.39146
 20.4365             0.45597
 20.5026             0.37284
 20.5688             0.10503
 20.6349            -0.41862
 20.7011            -1.21259
 20.7672            -2.25986
 20.8333            -3.52909
 20.8995            -4.97309
 20.9656            -6.53209
 21.0317            -8.13949
 21.0979            -9.72990
 21.1640           -11.24426
 21.2302           -12.63259
 21.2963           -13.85466
 21.3624           -14.87940
 21.4286           -15.68388
 21.4947           -16.25195
 21.5608           -16.57330
 21.6270           -16.64236
 21.6931           -16.45816
 21.7593           -16.02386
 21.8254           -15.34744
 21.8915           -14.44193
 21.9577           -13.32694
 22.0238           -12.02926
 22.0899           -10.58480
 22.1561            -9.03867
 22.2222            -7.44625
 22.2884            -5.87049
 22.3545            -4.37947
 22.4206            -3.03807
 22.4868            -1.90242
 22.5529            -1.01293
 22.6190            -0.39388
 22.6852            -0.01113
 22.7513             0.12468
 22.8175            -0.02001
 22.8836            -0.41015
 22.9497            -1.03877
 23.0159            -1.93980
 23.0820            -3.08709
 23.1481            -4.44058
 23.2143            -5.94312
 23.2804            -7.53008
 23.3466            -9.13284
 23.4127           -10.68904
 23.4788           -12.14299
 23.5450           -13.45024
 23.6111           -14.57448
 23.6772           -15.48954
 23.7434           -16.17525
 23.8095           -16.61923
 23.8757           -16.81291
 23.9418           -16.75394
 24.0079           -16.44276
 24.0741           -15.88585
 24.1402           -15.09279
 24.2063           -14.08041
 24.2725           -12.87018
 24.3386           -11.49315
 24.4048            -9.98692
 24.4709            -8.40053
 24.5370            -6.78914
 24.6032            -5.21649
 24.6693            -3.74394
 24.7354            -2.42924
 24.8016            -1.31314
 24.8677            -0.42583
 24.9339             0.22452
 25.0000             0.63831
 25.0661             0.85662
 25.1323             0.97600
 25.1984             1.06010
 25.2646             1.06996
 25.3307             0.98736
 25.3968             0.80628
 25.4630             0.55576
 25.5291             0.21455
 25.5952            -0.33078
 25.6614            -1.14235
 25.7275            -2.22970
 25.7937            -3.54833
 25.8598            -5.03145
 25.9259            -6.59818
 25.9921            -8.17056
 26.0582            -9.66524
 26.1243           -11.04782
 26.1905           -12.30141
 26.2566           -13.40378
 26.3228           -14.31681
 26.3889           -15.00726
 26.4550           -15.45467
 26.5212           -15.64497
 26.5873           -15.57677
 26.6534           -15.25867
 26.7196           -14.70665
 26.7857           -13.94520
 26.8519           -13.01163
 26.9180           -11.95579
 26.9841           -10.84040
 27.0503            -9.73599
 27.1164            -8.71465
 27.1825            -7.83517
 27.2487            -7.12743
 27.3148            -6.57058
 27.3810            -6.08894
 27.4471            -5.58937
 27.5132            -5.09520
 27.5794            -4.64253
 27.6455            -4.24114
 27.7116            -3.90773
 27.7778            -3.65002
 27.8439            -3.46675
 27.9101            -3.33846
 27.9762            -3.23176
 28.0423            -3.13181
 28.1085            -3.05425
 28.1746            -2.99714
 28.2407            -2.95732
 28.3069            -2.93113
 28.3730            -2.94245
 28.4392            -3.04097
 28.5053            -3.27600
 28.5714            -3.64638
 28.6376            -4.13005
 28.7037            -4.70984
 28.7698            -5.35899
 28.8360            -6.06701
 28.9021            -6.78751
 28.9683            -7.51301
 29.0344            -8.33954
 29.1005            -9.32706
 29.1667           -10.48202
 29.2328           -11.75987
 29.2989           -13.08791
 29.3651           -14.37769
 29.4312           -15.54530
 29.4974           -16.51768
 29.5635           -17.23702
 29.6296           -17.67260
 29.6958           -17.81073
 29.7619           -17.64507
 29.8280           -17.18548
 29.8942           -16.45300
 29.9603           -15.47969
 30.0265           -14.30054
 30.0926           -12.94997
 30.1587           -11.45662
 30.2249            -9.84244
 30.2910            -8.13728
 30.3571            -6.42865
 30.4233            -4.77310
 30.4894            -3.22859
 30.5556            -1.86096
 30.6217            -0.71980
 30.6878             0.15492
 30.7540             0.78071
 30.8201             1.23691
 30.8862             1.63610
 30.9524             1.98672
 31.0185             2.26965
 31.0847             2.50173
 31.1508             2.68899
 31.2169             2.84219
 31.2831             2.96567
 31.3492             3.06672
 31.4153             3.14806
 31.4815             3.21476
 31.5476             3.26833
 31.6138             3.31241
 31.6799             3.34772
 31.7460             3.37693
 31.8122             3.40023
 31.8783             3.41965
 31.9444             3.43504
 32.0106             3.44799
 32.0767             3.45816
 32.1429             3.46683
 32.2090             3.47354
 32.2751             3.47938
 32.3413             3.48381
 32.4074             3.48776
 32.4735             3.49068
 32.5397             3.49338
 32.6058             3.49529
 32.6720             3.49716
 32.7381             3.49840
 32.8042             3.49972
 32.8704             3.50051
 32.9365             3.50145
 33.0026             3.50196
 33.0688             3.50265
 33.1349             3.50296
 33.2011             3.50348
 33.2672             3.50365
 33.3333             3.50406
 33.3995             3.50415
 33.4656             3.50448
 33.5317             3.50451
 33.5979             3.50479
 33.6640             3.50479
 33.7302             3.50502
 33.7963             3.50500
 33.8624             3.50521
 33.9286             3.50516
 33.9947             3.50535
 34.0608             3.50530
 34.1270             3.50548
 34.1931             3.50542
 34.2593             3.50558
 34.3254             3.50552
 34.3915             3.50567
 34.4577             3.50561
 34.5238             3.50576
 34.5899             3.50569
 34.6561             3.50583
 34.7222             3.50576
 34.7884             3.50590
 34.8545             3.50583
 34.9206             3.50597
 34.9868             3.50590
 35.0529             3.50603
 35.1190             3.50596
 35.1852             3.50608
 35.2513             3.50601
 35.3175             3.50614
 35.3836             3.50606
 35.4497             3.50618
 35.5159             3.50611
 35.5820             3.50623
 35.6481             3.50616
 35.7143             3.50627
 35.7804             3.50620
 35.8466             3.50631
 35.9127             3.50624
 35.9788             3.50635
 36.0450             3.50627
 36.1111             3.50638
 36.1772             3.50630
 36.2434             3.50641
 36.3095             3.50633
 36.3757             3.50643
 36.4418             3.50636
 36.5079             3.50645
 36.5741             3.50638
 36.6402             3.50647
 36.7063             3.50640
 36.7725             3.50649
 36.8386             3.50642
 36.9048             3.50651
 36.9709             3.50643
 37.0370             3.50652
 37.1032             3.50644
 37.1693             3.50653
 37.2354             3.50645
 37.3016             3.50653
 37.3677             3.50646
 37.4339             3.50654
 37.5000             3.50646
 37.5661             3.50654
 37.6323             3.50646
 37.6984             3.50654
 37.7646             3.50646
 37.8307             3.50654
 37.8968             3.50646
 37.9630             3.50653
 38.0291             3.50646
 38.0952             3.50653
 38.1614             3.50645
 38.2275             3.50652
 38.2937             3.50645
 38.3598             3.50651
 38.4259             3.50644
 38.4921             3.50650
 38.5582             3.50643
 38.6243             3.50649
 38.6905             3.50642
 38.7566             3.50648
 38.8228             3.50641
 38.8889             3.50647
 38.9550             3.50640
 39.0212             3.50646
 39.0873             3.50639
 39.1534             3.50645
 39.2196             3.50638
 39.2857             3.50643
 39.3519             3.50636
 39.4180             3.50642
 39.4841             3.50635
 39.5503             3.50641
 39.6164             3.50634
 39.6825             3.50640
 39.7487             3.50633
 39.8148             3.50638
 39.8810             3.50632
 39.9471             3.50637
 40.0132             3.50630
 40.0794             3.50636
 40.1455             3.50629
 40.2116             3.50635
 40.2778             3.50628
 40.3439             3.50634
 40.4101             3.50627
 40.4762             3.50633
 40.5423             3.50627
 40.6085             3.50632
 40.6746             3.50626
 40.7407             3.50631
 40.8069             3.50625
 40.8730             3.50630
 40.9392             3.50624
 41.0053             3.50630
 41.0714             3.50624
 41.1376             3.50629
 41.2037             3.50623
 41.2698             3.50629
 41.3360             3.50623
 41.4021             3.50628
 41.4683             3.50623
 41.5344             3.50628
 41.6005             3.50623
 41.6667             3.50628
 41.7328             3.50623
 41.7989             3.50628
 41.8651             3.50623
 41.9312             3.50628
 41.9974             3.50623
 42.0635             3.50628
 42.1296             3.50623
 42.1958             3.50628
 42.2619             3.50624
 42.3280             3.50629
 42.3942             3.50624
 42.4603             3.50629
 42.5265             3.50625
 42.5926             3.50630
 42.6587             3.50626
 42.7249             3.50631
 42.7910             3.50626
 42.8571             3.50631
 42.9233             3.50627
 42.9894             3.50632
 43.0556             3.50628
 43.1217             3.50633
 43.1878             3.50629
 43.2540             3.50634
 43.3201             3.50630
 43.3862             3.50636
 43.4524             3.50632
 43.5185             3.50637
 43.5847             3.50633
 43.6508             3.50638
 43.7169             3.50634
 43.7831             3.50639
 43.8492             3.50636
 43.9153             3.50641
 43.9815             3.50637
 44.0476             3.50642
 44.1138             3.50639
 44.1799             3.50644
 44.2460             3.50641
 44.3122             3.50646
 44.3783             3.50642
 44.4444             3.50647
 44.5106             3.50644
 44.5767             3.50649
 44.6429             3.50646
 44.7090             3.50651
 44.7751             3.50647
 44.8413             3.50652
 44.9074             3.50649
 44.9735             3.50654
 45.0397             3.50651
 45.1058             3.50656
 45.1720             3.50653
 45.2381             3.50658
 45.3042             3.50655
 45.3704             3.50659
 45.4365             3.50657
 45.5026             3.50661
 45.5688             3.50658
 45.6349             3.50663
 45.7011             3.50660
 45.7672             3.50665
 45.8333             3.50662
 45.8995             3.50667
 45.9656             3.50664
 46.0317             3.50668
 46.0979             3.50666
 46.1640             3.50670
 46.2302             3.50668
 46.2963             3.50672
 46.3624             3.50669
 46.4286             3.50674
 46.4947             3.50671
 46.5608             3.50675
 46.6270             3.50673
 46.6931             3.50677
 46.7593             3.50674
 46.8254             3.50678
 46.8915             3.50676
 46.9577             3.50680
 47.0238             3.50678
 47.0899             3.50681
 47.1561             3.50679
 47.2222             3.50683
 47.2884             3.50680
 47.3545             3.50684
 47.4206             3.50682
 47.4868             3.50686
 47.5529             3.50683
 47.6190             3.50687
 47.6852             3.50684
 47.7513             3.50688
 47.8175             3.50686
 47.8836             3.50689
 47.9497             3.50687
 48.0159             3.50690
 48.0820             3.50688
 48.1481             3.50691
 48.2143             3.50689
 48.2804             3.50692
 48.3466             3.50690
 48.4127             3.50693
 48.4788             3.50690
 48.5450             3.50693
 48.6111             3.50691
 48.6772             3.50694
 48.7434             3.50692
 48.8095             3.50695
 48.8757             3.50692
 48.9418             3.50695
 49.0079             3.50693
 49.0741             3.50695
 49.1402             3.50693
 49.2063             3.50696
 49.2725             3.50693
 49.3386             3.50696
 49.4048             3.50694
 49.4709             3.50696
 49.5370             3.50694
 49.6032             3.50696
 49.6693             3.50694
 49.7354             3.50697
 49.8016             3.50190
 49.8677             3.48753
 49.9339             3.46587
