#Distance(A) Planar-Average-Potential(eV)/Densitiy(e/A)
  0.0000             4.05762
  0.0661             4.05851
  0.1323             4.05942
  0.1984             4.06031
  0.2646             4.06123
  0.3307             4.06212
  0.3968             4.06303
  0.4630             4.06393
  0.5291             4.06484
  0.5952             4.06574
  0.6614             4.06665
  0.7275             4.06755
  0.7937             4.06847
  0.8598             4.06936
  0.9259             4.07028
  0.9921             4.07118
  1.0582             4.07209
  1.1243             4.07299
  1.1905             4.07391
  1.2566             4.07481
  1.3228             4.07573
  1.3889             4.07663
  1.4550             4.07755
  1.5212             4.07845
  1.5873             4.07937
  1.6534             4.08027
  1.7196             4.08119
  1.7857             4.08210
  1.8519             4.08302
  1.9180             4.08392
  1.9841             4.08484
  2.0503             4.08575
  2.1164             4.08667
  2.1825             4.08757
  2.2487             4.08849
  2.3148             4.08940
  2.3810             4.09032
  2.4471             4.09123
  2.5132             4.09215
  2.5794             4.09306
  2.6455             4.09398
  2.7116             4.09488
  2.7778             4.09581
  2.8439             4.09671
  2.9101             4.09764
  2.9762             4.09854
  3.0423             4.09947
  3.1085             4.10037
  3.1746             4.10130
  3.2407             4.10220
  3.3069             4.10313
  3.3730             4.10403
  3.4392             4.10495
  3.5053             4.10586
  3.5714             4.10678
  3.6376             4.10769
  3.7037             4.10861
  3.7698             4.10952
  3.8360             4.11044
  3.9021             4.11135
  3.9683             4.11227
  4.0344             4.11318
  4.1005             4.11410
  4.1667             4.11500
  4.2328             4.11592
  4.2989             4.11683
  4.3651             4.11775
  4.4312             4.11866
  4.4974             4.11958
  4.5635             4.12048
  4.6296             4.12140
  4.6958             4.12231
  4.7619             4.12323
  4.8280             4.12414
  4.8942             4.12506
  4.9603             4.12596
  5.0265             4.12688
  5.0926             4.12779
  5.1587             4.12871
  5.2249             4.12961
  5.2910             4.13053
  5.3571             4.13144
  5.4233             4.13236
  5.4894             4.13327
  5.5556             4.13419
  5.6217             4.13509
  5.6878             4.13601
  5.7540             4.13692
  5.8201             4.13784
  5.8862             4.13875
  5.9524             4.13967
  6.0185             4.14058
  6.0847             4.14150
  6.1508             4.14241
  6.2169             4.14333
  6.2831             4.14424
  6.3492             4.14516
  6.4153             4.14607
  6.4815             4.14700
  6.5476             4.14791
  6.6138             4.14883
  6.6799             4.14974
  6.7460             4.15067
  6.8122             4.15158
  6.8783             4.15251
  6.9444             4.15342
  7.0106             4.15435
  7.0767             4.15527
  7.1429             4.15620
  7.2090             4.15712
  7.2751             4.15805
  7.3413             4.15897
  7.4074             4.15990
  7.4735             4.16082
  7.5397             4.16175
  7.6058             4.16267
  7.6720             4.16361
  7.7381             4.16453
  7.8042             4.16547
  7.8704             4.16640
  7.9365             4.16733
  8.0026             4.16826
  8.0688             4.16920
  8.1349             4.17013
  8.2011             4.17107
  8.2672             4.17200
  8.3333             4.17295
  8.3995             4.17388
  8.4656             4.17482
  8.5317             4.17576
  8.5979             4.17670
  8.6640             4.17764
  8.7302             4.17859
  8.7963             4.17952
  8.8624             4.18047
  8.9286             4.18141
  8.9947             4.18236
  9.0608             4.18330
  9.1270             4.18425
  9.1931             4.18519
  9.2593             4.18614
  9.3254             4.18708
  9.3915             4.18803
  9.4577             4.18897
  9.5238             4.18992
  9.5899             4.19086
  9.6561             4.19181
  9.7222             4.19275
  9.7884             4.19371
  9.8545             4.19464
  9.9206             4.19560
  9.9868             4.19653
 10.0529             4.19748
 10.1190             4.19842
 10.1852             4.19937
 10.2513             4.20030
 10.3175             4.20125
 10.3836             4.20218
 10.4497             4.20312
 10.5159             4.20405
 10.5820             4.20499
 10.6481             4.20592
 10.7143             4.20685
 10.7804             4.20778
 10.8466             4.20871
 10.9127             4.20962
 10.9788             4.21055
 11.0450             4.21146
 11.1111             4.21238
 11.1772             4.21328
 11.2434             4.21420
 11.3095             4.21509
 11.3757             4.21600
 11.4418             4.21688
 11.5079             4.21778
 11.5741             4.21865
 11.6402             4.21953
 11.7063             4.22040
 11.7725             4.22126
 11.8386             4.22211
 11.9048             4.22296
 11.9709             4.22379
 12.0370             4.22462
 12.1032             4.22542
 12.1693             4.22623
 12.2354             4.22700
 12.3016             4.22777
 12.3677             4.22851
 12.4339             4.22924
 12.5000             4.22992
 12.5661             4.23060
 12.6323             4.23123
 12.6984             4.23184
 12.7646             4.23238
 12.8307             4.23290
 12.8968             4.23333
 12.9630             4.23373
 13.0291             4.23402
 13.0952             4.23425
 13.1614             4.23435
 13.2275             4.23436
 13.2937             4.23420
 13.3598             4.23391
 13.4259             4.23340
 13.4921             4.23271
 13.5582             4.23172
 13.6243             4.23047
 13.6905             4.22882
 13.7566             4.22681
 13.8228             4.22427
 13.8889             4.22122
 13.9550             4.21745
 14.0212             4.21296
 14.0873             4.20750
 14.1534             4.20104
 14.2196             4.19325
 14.2857             4.18406
 14.3519             4.17305
 14.4180             4.16008
 14.4841             4.14461
 14.5503             4.12640
 14.6164             4.10473
 14.6825             4.07922
 14.7487             4.04892
 14.8148             4.01323
 14.8810             3.97084
 14.9471             3.92089
 15.0132             3.86156
 15.0794             3.79158
 15.1455             3.70837
 15.2116             3.61011
 15.2778             3.49305
 15.3439             3.35460
 15.4101             3.18917
 15.4762             2.99325
 15.5423             2.75892
 15.6085             2.51354
 15.6746             2.25380
 15.7407             1.88341
 15.8069             1.31731
 15.8730             0.53001
 15.9392            -0.48051
 16.0053            -1.70128
 16.0714            -3.10082
 16.1376            -4.63409
 16.2037            -6.24255
 16.2698            -7.86458
 16.3360            -9.43952
 16.4021           -10.91478
 16.4683           -12.24523
 16.5344           -13.39593
 16.6005           -14.33911
 16.6667           -15.05542
 16.7328           -15.53058
 16.7989           -15.75668
 16.8651           -15.72934
 16.9312           -15.44961
 16.9974           -14.92187
 17.0635           -14.15651
 17.1296           -13.16846
 17.1958           -11.98060
 17.2619           -10.62259
 17.3280            -9.13434
 17.3942            -7.56413
 17.4603            -5.97073
 17.5265            -4.41829
 17.5926            -2.97454
 17.6587            -1.70007
 17.7249            -0.64555
 17.7910             0.15628
 17.8571             0.68464
 17.9233             0.96931
 17.9894             1.04661
 18.0556             0.91746
 18.1217             0.57891
 18.1878            -0.00569
 18.2540            -0.86004
 18.3201            -1.96088
 18.3862            -3.27355
 18.4524            -4.74564
 18.5185            -6.31565
 18.5847            -7.91574
 18.6508            -9.48268
 18.7169           -10.95893
 18.7831           -12.29798
 18.8492           -13.46142
 18.9153           -14.42132
 18.9815           -15.15596
 19.0476           -15.65171
 19.1138           -15.89879
 19.1799           -15.89382
 19.2460           -15.63602
 19.3122           -15.13077
 19.3783           -14.38638
 19.4444           -13.41874
 19.5106           -12.24828
 19.5767           -10.90567
 19.6429            -9.42818
 19.7090            -7.86558
 19.7751            -6.27412
 19.8413            -4.72084
 19.9074            -3.27151
 19.9735            -1.99221
 20.0397            -0.93134
 20.1058            -0.13103
 20.1720             0.41521
 20.2381             0.72532
 20.3042             0.74567
 20.3704             0.46949
 20.4365            -0.04647
 20.5026            -0.81127
 20.5688            -1.83992
 20.6349            -3.09281
 20.7011            -4.52339
 20.7672            -6.06692
 20.8333            -7.65769
 20.8995            -9.22816
 20.9656           -10.72077
 21.0317           -12.08462
 21.0979           -13.28101
 21.1640           -14.27831
 21.2302           -15.05490
 21.2963           -15.59426
 21.3624           -15.88719
 21.4286           -15.92791
 21.4947           -15.71640
 21.5608           -15.25575
 21.6270           -14.55486
 21.6931           -13.62691
 21.7593           -12.49249
 21.8254           -11.17884
 21.8915            -9.72293
 21.9577            -8.17048
 22.0238            -6.57767
 22.0899            -5.00765
 22.1561            -3.52811
 22.2222            -2.20258
 22.2884            -1.08506
 22.3545            -0.21405
 22.4206             0.38897
 22.4868             0.75546
 22.5529             0.88567
 22.6190             0.75828
 22.6852             0.39811
 22.7513            -0.20382
 22.8175            -1.07791
 22.8836            -2.19856
 22.9497            -3.52766
 23.0159            -5.00953
 23.0820            -6.58069
 23.1481            -8.17293
 23.2143            -9.72358
 23.2804           -11.17646
 23.3466           -12.48618
 23.4127           -13.61579
 23.4788           -14.53820
 23.5450           -15.23295
 23.6111           -15.68695
 23.6772           -15.89166
 23.7434           -15.84405
 23.8095           -15.54470
 23.8757           -14.99931
 23.9418           -14.21769
 24.0079           -13.21584
 24.0741           -12.01563
 24.1402           -10.64724
 24.2063            -9.14874
 24.2725            -7.56792
 24.3386            -5.96014
 24.4048            -4.38720
 24.4709            -2.91043
 24.5370            -1.58514
 24.6032            -0.45205
 24.6693             0.46212
 24.7354             1.14965
 24.8016             1.61620
 24.8677             1.90262
 24.9339             2.10821
 25.0000             2.30321
 25.0661             2.46517
 25.1323             2.57632
 25.1984             2.64310
 25.2646             2.66354
 25.3307             2.63893
 25.3968             2.56409
 25.4630             2.43603
 25.5291             2.24484
 25.5952             1.98244
 25.6614             1.63206
 25.7275             1.17884
 25.7937             0.59596
 25.8598            -0.14055
 25.9259            -1.06539
 25.9921            -2.12200
 26.0582            -3.44488
 26.1243            -5.41816
 26.1905            -8.17687
 26.2566           -11.48966
 26.3228           -14.88053
 26.3889           -17.85035
 26.4550           -20.04057
 26.5212           -21.34474
 26.5873           -21.90259
 26.6534           -22.01600
 26.7196           -21.99104
 26.7857           -21.99945
 26.8519           -21.98501
 26.9180           -21.70008
 26.9841           -20.81867
 27.0503           -19.10009
 27.1164           -16.51040
 27.1825           -13.28255
 27.2487            -9.85486
 27.3148            -6.74493
 27.3810            -4.33531
 27.4471            -2.69800
 27.5132            -1.52126
 27.5794            -0.49931
 27.6455             0.35639
 27.7116             1.04344
 27.7778             1.59357
 27.8439             2.03424
 27.9101             2.38629
 27.9762             2.66778
 28.0423             2.89155
 28.1085             3.06906
 28.1746             3.20778
 28.2407             3.31466
 28.3069             3.39353
 28.3730             3.44828
 28.4392             3.48005
 28.5053             3.49047
 28.5714             3.47844
 28.6376             3.44363
 28.7037             3.38272
 28.7698             3.29339
 28.8360             3.16967
 28.9021             3.00697
 28.9683             2.79581
 29.0344             2.52889
 29.1005             2.19405
 29.1667             1.81744
 29.2328             1.35975
 29.2989             0.70920
 29.3651            -0.19643
 29.4312            -1.36420
 29.4974            -2.75139
 29.5635            -4.29172
 29.6296            -5.90638
 29.6958            -7.50882
 29.7619            -9.04336
 29.8280           -10.48618
 29.8942           -11.80708
 29.9603           -12.96930
 30.0265           -13.92415
 30.0926           -14.64031
 30.1587           -15.09435
 30.2249           -15.27528
 30.2910           -15.18333
 30.3571           -14.82962
 30.4233           -14.23114
 30.4894           -13.41662
 30.5556           -12.42587
 30.6217           -11.31309
 30.6878           -10.14309
 30.7540            -8.99005
 30.8201            -7.92658
 30.8862            -7.01321
 30.9524            -6.27723
 31.0185            -5.69770
 31.0847            -5.19609
 31.1508            -4.69328
 31.2169            -4.21863
 31.2831            -3.80517
 31.3492            -3.46244
 31.4153            -3.20196
 31.4815            -3.02123
 31.5476            -2.90592
 31.6138            -2.82245
 31.6799            -2.74982
 31.7460            -2.69759
 31.8122            -2.66906
 31.8783            -2.65590
 31.9444            -2.65501
 32.0106            -2.69603
 32.0767            -2.82748
 32.1429            -3.09306
 32.2090            -3.49049
 32.2751            -3.99376
 32.3413            -4.58592
 32.4074            -5.23892
 32.4735            -5.94334
 32.5397            -6.64937
 32.6058            -7.36131
 32.6720            -8.17612
 32.7381            -9.15111
 32.8042           -10.28917
 32.8704           -11.54533
 32.9365           -12.84833
 33.0026           -14.11326
 33.0688           -15.25636
 33.1349           -16.20621
 33.2011           -16.90566
 33.2672           -17.31732
 33.3333           -17.43056
 33.3995           -17.24301
 33.4656           -16.76422
 33.5317           -16.01702
 33.5979           -15.03232
 33.6640           -13.84514
 33.7302           -12.48663
 33.7963           -10.98347
 33.8624            -9.35491
 33.9286            -7.63935
 33.9947            -5.92662
 34.0608            -4.27264
 34.1270            -2.73584
 34.1931            -1.38164
 34.2593            -0.25795
 34.3254             0.59899
 34.3915             1.21044
 34.4577             1.66057
 34.5238             2.05847
 34.5899             2.40427
 34.6561             2.68365
 34.7222             2.91227
 34.7884             3.09705
 34.8545             3.24777
 34.9206             3.36954
 34.9868             3.46880
 35.0529             3.54896
 35.1190             3.61433
 35.1852             3.66711
 35.2513             3.71022
 35.3175             3.74502
 35.3836             3.77351
 35.4497             3.79650
 35.5159             3.81539
 35.5820             3.83063
 35.6481             3.84320
 35.7143             3.85334
 35.7804             3.86175
 35.8466             3.86853
 35.9127             3.87420
 35.9788             3.87877
 36.0450             3.88263
 36.1111             3.88576
 36.1772             3.88844
 36.2434             3.89061
 36.3095             3.89250
 36.3757             3.89405
 36.4418             3.89543
 36.5079             3.89657
 36.5741             3.89762
 36.6402             3.89850
 36.7063             3.89933
 36.7725             3.90003
 36.8386             3.90072
 36.9048             3.90132
 36.9709             3.90192
 37.0370             3.90245
 37.1032             3.90299
 37.1693             3.90348
 37.2354             3.90398
 37.3016             3.90444
 37.3677             3.90492
 37.4339             3.90538
 37.5000             3.90584
 37.5661             3.90629
 37.6323             3.90675
 37.6984             3.90720
 37.7646             3.90766
 37.8307             3.90811
 37.8968             3.90857
 37.9630             3.90902
 38.0291             3.90949
 38.0952             3.90994
 38.1614             3.91041
 38.2275             3.91088
 38.2937             3.91135
 38.3598             3.91183
 38.4259             3.91231
 38.4921             3.91279
 38.5582             3.91327
 38.6243             3.91377
 38.6905             3.91426
 38.7566             3.91476
 38.8228             3.91527
 38.8889             3.91578
 38.9550             3.91629
 39.0212             3.91681
 39.0873             3.91733
 39.1534             3.91787
 39.2196             3.91840
 39.2857             3.91895
 39.3519             3.91949
 39.4180             3.92005
 39.4841             3.92060
 39.5503             3.92117
 39.6164             3.92174
 39.6825             3.92233
 39.7487             3.92291
 39.8148             3.92350
 39.8810             3.92410
 39.9471             3.92471
 40.0132             3.92532
 40.0794             3.92594
 40.1455             3.92656
 40.2116             3.92720
 40.2778             3.92784
 40.3439             3.92850
 40.4101             3.92915
 40.4762             3.92982
 40.5423             3.93048
 40.6085             3.93117
 40.6746             3.93185
 40.7407             3.93255
 40.8069             3.93325
 40.8730             3.93396
 40.9392             3.93467
 41.0053             3.93541
 41.0714             3.93613
 41.1376             3.93688
 41.2037             3.93762
 41.2698             3.93838
 41.3360             3.93914
 41.4021             3.93991
 41.4683             3.94068
 41.5344             3.94147
 41.6005             3.94226
 41.6667             3.94306
 41.7328             3.94386
 41.7989             3.94467
 41.8651             3.94548
 41.9312             3.94631
 41.9974             3.94713
 42.0635             3.94798
 42.1296             3.94881
 42.1958             3.94967
 42.2619             3.95051
 42.3280             3.95137
 42.3942             3.95223
 42.4603             3.95310
 42.5265             3.95397
 42.5926             3.95485
 42.6587             3.95573
 42.7249             3.95662
 42.7910             3.95750
 42.8571             3.95840
 42.9233             3.95929
 42.9894             3.96020
 43.0556             3.96110
 43.1217             3.96202
 43.1878             3.96292
 43.2540             3.96384
 43.3201             3.96475
 43.3862             3.96568
 43.4524             3.96659
 43.5185             3.96753
 43.5847             3.96844
 43.6508             3.96938
 43.7169             3.97030
 43.7831             3.97124
 43.8492             3.97217
 43.9153             3.97311
 43.9815             3.97404
 44.0476             3.97499
 44.1138             3.97592
 44.1799             3.97687
 44.2460             3.97780
 44.3122             3.97875
 44.3783             3.97968
 44.4444             3.98063
 44.5106             3.98157
 44.5767             3.98252
 44.6429             3.98345
 44.7090             3.98440
 44.7751             3.98534
 44.8413             3.98629
 44.9074             3.98722
 44.9735             3.98818
 45.0397             3.98911
 45.1058             3.99006
 45.1720             3.99099
 45.2381             3.99194
 45.3042             3.99287
 45.3704             3.99382
 45.4365             3.99475
 45.5026             3.99569
 45.5688             3.99662
 45.6349             3.99757
 45.7011             3.99849
 45.7672             3.99944
 45.8333             4.00036
 45.8995             4.00130
 45.9656             4.00222
 46.0317             4.00316
 46.0979             4.00408
 46.1640             4.00502
 46.2302             4.00594
 46.2963             4.00687
 46.3624             4.00779
 46.4286             4.00872
 46.4947             4.00963
 46.5608             4.01057
 46.6270             4.01148
 46.6931             4.01241
 46.7593             4.01331
 46.8254             4.01424
 46.8915             4.01515
 46.9577             4.01607
 47.0238             4.01698
 47.0899             4.01790
 47.1561             4.01880
 47.2222             4.01973
 47.2884             4.02063
 47.3545             4.02155
 47.4206             4.02245
 47.4868             4.02337
 47.5529             4.02426
 47.6190             4.02518
 47.6852             4.02608
 47.7513             4.02699
 47.8175             4.02789
 47.8836             4.02880
 47.9497             4.02969
 48.0159             4.03061
 48.0820             4.03150
 48.1481             4.03241
 48.2143             4.03330
 48.2804             4.03422
 48.3466             4.03511
 48.4127             4.03602
 48.4788             4.03691
 48.5450             4.03782
 48.6111             4.03871
 48.6772             4.03962
 48.7434             4.04051
 48.8095             4.04142
 48.8757             4.04230
 48.9418             4.04321
 49.0079             4.04410
 49.0741             4.04501
 49.1402             4.04590
 49.2063             4.04681
 49.2725             4.04770
 49.3386             4.04861
 49.4048             4.04950
 49.4709             4.05041
 49.5370             4.05130
 49.6032             4.05221
 49.6693             4.05310
 49.7354             4.05401
 49.8016             4.05490
 49.8677             4.05581
 49.9339             4.05670
