#Distance(A) Planar-Average-Potential(eV)/Densitiy(e/A)
  0.0000             3.23244
  0.0670             3.09901
  0.1339             2.98668
  0.2009             2.91222
  0.2679             2.88617
  0.3348             2.88621
  0.4018             2.88617
  0.4688             2.88621
  0.5357             2.88617
  0.6027             2.88622
  0.6696             2.88618
  0.7366             2.88622
  0.8036             2.88618
  0.8705             2.88622
  0.9375             2.88619
  1.0045             2.88623
  1.0714             2.88619
  1.1384             2.88623
  1.2054             2.88620
  1.2723             2.88624
  1.3393             2.88620
  1.4062             2.88624
  1.4732             2.88621
  1.5402             2.88625
  1.6071             2.88622
  1.6741             2.88626
  1.7411             2.88623
  1.8080             2.88627
  1.8750             2.88624
  1.9420             2.88628
  2.0089             2.88625
  2.0759             2.88629
  2.1429             2.88626
  2.2098             2.88630
  2.2768             2.88627
  2.3438             2.88631
  2.4107             2.88628
  2.4777             2.88632
  2.5446             2.88629
  2.6116             2.88634
  2.6786             2.88631
  2.7455             2.88635
  2.8125             2.88632
  2.8795             2.88636
  2.9464             2.88634
  3.0134             2.88638
  3.0804             2.88635
  3.1473             2.88639
  3.2143             2.88636
  3.2812             2.88640
  3.3482             2.88638
  3.4152             2.88642
  3.4821             2.88639
  3.5491             2.88643
  3.6161             2.88641
  3.6830             2.88644
  3.7500             2.88642
  3.8170             2.88646
  3.8839             2.88643
  3.9509             2.88647
  4.0179             2.88644
  4.0848             2.88648
  4.1518             2.88646
  4.2188             2.88649
  4.2857             2.88647
  4.3527             2.88650
  4.4196             2.88648
  4.4866             2.88651
  4.5536             2.88649
  4.6205             2.88652
  4.6875             2.88649
  4.7545             2.88653
  4.8214             2.88650
  4.8884             2.88654
  4.9554             2.88651
  5.0223             2.88654
  5.0893             2.88651
  5.1562             2.88654
  5.2232             2.88652
  5.2902             2.88655
  5.3571             2.88652
  5.4241             2.88655
  5.4911             2.88652
  5.5580             2.88655
  5.6250             2.88652
  5.6920             2.88655
  5.7589             2.88651
  5.8259             2.88654
  5.8929             2.88651
  5.9598             2.88654
  6.0268             2.88650
  6.0938             2.88653
  6.1607             2.88650
  6.2277             2.88652
  6.2946             2.88649
  6.3616             2.88652
  6.4286             2.88648
  6.4955             2.88650
  6.5625             2.88647
  6.6295             2.88649
  6.6964             2.88646
  6.7634             2.88648
  6.8304             2.88644
  6.8973             2.88647
  6.9643             2.88643
  7.0312             2.88645
  7.0982             2.88641
  7.1652             2.88643
  7.2321             2.88639
  7.2991             2.88642
  7.3661             2.88638
  7.4330             2.88640
  7.5000             2.88636
  7.5670             2.88638
  7.6339             2.88634
  7.7009             2.88636
  7.7679             2.88632
  7.8348             2.88634
  7.9018             2.88630
  7.9688             2.88633
  8.0357             2.88628
  8.1027             2.88631
  8.1696             2.88626
  8.2366             2.88629
  8.3036             2.88624
  8.3705             2.88627
  8.4375             2.88622
  8.5045             2.88625
  8.5714             2.88620
  8.6384             2.88623
  8.7054             2.88618
  8.7723             2.88621
  8.8393             2.88616
  8.9062             2.88619
  8.9732             2.88614
  9.0402             2.88618
  9.1071             2.88613
  9.1741             2.88616
  9.2411             2.88611
  9.3080             2.88614
  9.3750             2.88609
  9.4420             2.88613
  9.5089             2.88608
  9.5759             2.88611
  9.6429             2.88606
  9.7098             2.88610
  9.7768             2.88604
  9.8438             2.88609
  9.9107             2.88603
  9.9777             2.88607
 10.0446             2.88601
 10.1116             2.88606
 10.1786             2.88599
 10.2455             2.88604
 10.3125             2.88597
 10.3795             2.88601
 10.4464             2.88594
 10.5134             2.88598
 10.5804             2.88589
 10.6473             2.88593
 10.7143             2.88583
 10.7812             2.88586
 10.8482             2.88573
 10.9152             2.88574
 10.9821             2.88558
 11.0491             2.88555
 11.1161             2.88534
 11.1830             2.88526
 11.2500             2.88495
 11.3170             2.88477
 11.3839             2.88433
 11.4509             2.88399
 11.5179             2.88333
 11.5848             2.88274
 11.6518             2.88173
 11.7188             2.88072
 11.7857             2.87916
 11.8527             2.87748
 11.9196             2.87504
 11.9866             2.87228
 12.0536             2.86843
 12.1205             2.86394
 12.1875             2.85785
 12.2545             2.85060
 12.3214             2.84096
 12.3884             2.82928
 12.4554             2.81398
 12.5223             2.79522
 12.5893             2.77090
 12.6562             2.74088
 12.7232             2.70222
 12.7902             2.65422
 12.8571             2.59269
 12.9241             2.51596
 12.9911             2.41791
 13.0580             2.29533
 13.1250             2.13906
 13.1920             1.94339
 13.2589             1.69444
 13.3259             1.38255
 13.3929             0.98639
 13.4598             0.49056
 13.5268            -0.13792
 13.5938            -0.92204
 13.6607            -1.90640
 13.7277            -2.99966
 13.7946            -4.41300
 13.8616            -6.58899
 13.9286            -9.57132
 13.9955           -13.03866
 14.0625           -16.44664
 14.1295           -19.29488
 14.1964           -21.26314
 14.2634           -22.32512
 14.3304           -22.69281
 14.3973           -22.71579
 14.4643           -22.68712
 14.5312           -22.72080
 14.5982           -22.66954
 14.6652           -22.22419
 14.7321           -21.04280
 14.7991           -18.94296
 14.8661           -15.99140
 14.9330           -12.54306
 15.0000            -9.11423
 15.0670            -6.23479
 15.1339            -4.18050
 15.2009            -2.84415
 15.2679            -1.76428
 15.3348            -0.80593
 15.4018            -0.04788
 15.4688             0.56026
 15.5357             1.03879
 15.6027             1.42008
 15.6696             1.71832
 15.7366             1.95371
 15.8036             2.13504
 15.8705             2.27475
 15.9375             2.37776
 16.0045             2.45135
 16.0714             2.49775
 16.1384             2.52060
 16.2054             2.52014
 16.2723             2.49707
 16.3393             2.44991
 16.4062             2.37655
 16.4732             2.27377
 16.5402             2.13625
 16.6071             1.95872
 16.6741             1.73157
 16.7411             1.44750
 16.8080             1.09070
 16.8750             0.68596
 16.9420             0.20788
 17.0089            -0.46622
 17.0759            -1.39681
 17.1429            -2.59782
 17.2098            -4.04097
 17.2768            -5.66892
 17.3438            -7.42420
 17.4107            -9.22705
 17.4777           -10.98009
 17.5446           -12.61176
 17.6116           -14.09022
 17.6786           -15.40128
 17.7455           -16.51550
 17.8125           -17.40047
 17.8795           -18.01915
 17.9464           -18.34529
 18.0134           -18.35954
 18.0804           -18.06139
 18.1473           -17.45696
 18.2143           -16.56928
 18.2812           -15.44759
 18.3482           -14.16160
 18.4152           -12.79247
 18.4821           -11.43364
 18.5491           -10.16822
 18.6161            -9.06212
 18.6830            -8.13622
 18.7500            -7.36076
 18.8170            -6.64010
 18.8839            -5.91569
 18.9509            -5.23718
 19.0179            -4.62960
 19.0848            -4.11339
 19.1518            -3.71569
 19.2188            -3.46177
 19.2857            -3.32870
 19.3527            -3.28817
 19.4196            -3.29323
 19.4866            -3.30391
 19.5536            -3.33518
 19.6205            -3.39097
 19.6875            -3.46956
 19.7545            -3.55887
 19.8214            -3.67002
 19.8884            -3.84023
 19.9554            -4.08953
 20.0223            -4.42349
 20.0893            -4.83281
 20.1562            -5.30695
 20.2232            -5.82038
 20.2902            -6.32682
 20.3571            -6.89628
 20.4241            -7.61964
 20.4911            -8.52502
 20.5580            -9.59002
 20.6250           -10.75325
 20.6920           -11.94028
 20.7589           -13.07306
 20.8259           -14.08388
 20.8929           -14.91533
 20.9598           -15.52585
 21.0268           -15.88496
 21.0938           -15.97556
 21.1607           -15.78653
 21.2277           -15.31817
 21.2946           -14.58144
 21.3616           -13.60141
 21.4286           -12.40949
 21.4955           -11.05559
 21.5625            -9.57864
 21.6295            -8.00972
 21.6964            -6.37340
 21.7634            -4.73158
 21.8304            -3.17525
 21.8973            -1.78446
 21.9643            -0.62624
 22.0312             0.26107
 22.0982             0.89385
 22.1652             1.34855
 22.2321             1.74336
 22.2991             2.09199
 22.3661             2.37252
 22.4330             2.60219
 22.5000             2.78695
 22.5670             2.93776
 22.6339             3.05897
 22.7009             3.15791
 22.7679             3.23733
 22.8348             3.30224
 22.9018             3.35425
 22.9688             3.39689
 23.0357             3.43097
 23.1027             3.45902
 23.1696             3.48136
 23.2366             3.49986
 23.3036             3.51452
 23.3705             3.52675
 23.4375             3.53636
 23.5045             3.54446
 23.5714             3.55075
 23.6384             3.55613
 23.7054             3.56024
 23.7723             3.56384
 23.8393             3.56651
 23.9062             3.56892
 23.9732             3.57065
 24.0402             3.57228
 24.1071             3.57338
 24.1741             3.57449
 24.2411             3.57519
 24.3080             3.57595
 24.3750             3.57638
 24.4420             3.57692
 24.5089             3.57717
 24.5759             3.57755
 24.6429             3.57769
 24.7098             3.57797
 24.7768             3.57804
 24.8438             3.57825
 24.9107             3.57826
 24.9777             3.57843
 25.0446             3.57842
 25.1116             3.57855
 25.1786             3.57852
 25.2455             3.57863
 25.3125             3.57858
 25.3795             3.57868
 25.4464             3.57863
 25.5134             3.57872
 25.5804             3.57866
 25.6473             3.57874
 25.7143             3.57868
 25.7812             3.57875
 25.8482             3.57869
 25.9152             3.57876
 25.9821             3.57870
 26.0491             3.57877
 26.1161             3.57871
 26.1830             3.57877
 26.2500             3.57871
 26.3170             3.57878
 26.3839             3.57872
 26.4509             3.57878
 26.5179             3.57872
 26.5848             3.57878
 26.6518             3.57872
 26.7188             3.57878
 26.7857             3.57872
 26.8527             3.57878
 26.9196             3.57872
 26.9866             3.57878
 27.0536             3.57873
 27.1205             3.57878
 27.1875             3.57873
 27.2545             3.57878
 27.3214             3.57873
 27.3884             3.57878
 27.4554             3.57873
 27.5223             3.57878
 27.5893             3.57873
 27.6562             3.57878
 27.7232             3.57873
 27.7902             3.57878
 27.8571             3.57873
 27.9241             3.57878
 27.9911             3.57873
 28.0580             3.57878
 28.1250             3.57873
 28.1920             3.57877
 28.2589             3.57872
 28.3259             3.57877
 28.3929             3.57872
 28.4598             3.57877
 28.5268             3.57872
 28.5938             3.57877
 28.6607             3.57872
 28.7277             3.57877
 28.7946             3.57872
 28.8616             3.57876
 28.9286             3.57872
 28.9955             3.57876
 29.0625             3.57871
 29.1295             3.57876
 29.1964             3.57871
 29.2634             3.57876
 29.3304             3.57871
 29.3973             3.57875
 29.4643             3.57871
 29.5312             3.57875
 29.5982             3.57871
 29.6652             3.57875
 29.7321             3.57871
 29.7991             3.55275
 29.8661             3.47819
 29.9330             3.36595
