#Distance(A) Planar-Average-Potential(eV)/Densitiy(e/A)
  0.0000             4.16455
  0.0661             4.16419
  0.1323             4.16383
  0.1984             4.16346
  0.2646             4.16310
  0.3307             4.16273
  0.3968             4.16237
  0.4630             4.16201
  0.5291             4.16165
  0.5952             4.16128
  0.6614             4.16092
  0.7275             4.16055
  0.7937             4.16019
  0.8598             4.15983
  0.9259             4.15947
  0.9921             4.15910
  1.0582             4.15874
  1.1243             4.15837
  1.1905             4.15801
  1.2566             4.15765
  1.3228             4.15729
  1.3889             4.15692
  1.4550             4.15656
  1.5212             4.15619
  1.5873             4.15583
  1.6534             4.15546
  1.7196             4.15510
  1.7857             4.15473
  1.8519             4.15438
  1.9180             4.15401
  1.9841             4.15365
  2.0503             4.15328
  2.1164             4.15292
  2.1825             4.15255
  2.2487             4.15219
  2.3148             4.15182
  2.3810             4.15146
  2.4471             4.15109
  2.5132             4.15073
  2.5794             4.15036
  2.6455             4.15000
  2.7116             4.14963
  2.7778             4.14928
  2.8439             4.14891
  2.9101             4.14855
  2.9762             4.14818
  3.0423             4.14782
  3.1085             4.14745
  3.1746             4.14709
  3.2407             4.14672
  3.3069             4.14636
  3.3730             4.14599
  3.4392             4.14563
  3.5053             4.14526
  3.5714             4.14490
  3.6376             4.14453
  3.7037             4.14417
  3.7698             4.14380
  3.8360             4.14345
  3.9021             4.14307
  3.9683             4.14272
  4.0344             4.14235
  4.1005             4.14199
  4.1667             4.14162
  4.2328             4.14126
  4.2989             4.14089
  4.3651             4.14053
  4.4312             4.14016
  4.4974             4.13980
  4.5635             4.13943
  4.6296             4.13907
  4.6958             4.13870
  4.7619             4.13835
  4.8280             4.13797
  4.8942             4.13762
  4.9603             4.13725
  5.0265             4.13689
  5.0926             4.13652
  5.1587             4.13616
  5.2249             4.13579
  5.2910             4.13544
  5.3571             4.13506
  5.4233             4.13471
  5.4894             4.13434
  5.5556             4.13398
  5.6217             4.13361
  5.6878             4.13325
  5.7540             4.13288
  5.8201             4.13253
  5.8862             4.13215
  5.9524             4.13180
  6.0185             4.13143
  6.0847             4.13107
  6.1508             4.13070
  6.2169             4.13034
  6.2831             4.12997
  6.3492             4.12962
  6.4153             4.12924
  6.4815             4.12889
  6.5476             4.12852
  6.6138             4.12816
  6.6799             4.12779
  6.7460             4.12743
  6.8122             4.12706
  6.8783             4.12671
  6.9444             4.12633
  7.0106             4.12598
  7.0767             4.12561
  7.1429             4.12525
  7.2090             4.12488
  7.2751             4.12452
  7.3413             4.12415
  7.4074             4.12379
  7.4735             4.12342
  7.5397             4.12307
  7.6058             4.12269
  7.6720             4.12234
  7.7381             4.12196
  7.8042             4.12161
  7.8704             4.12123
  7.9365             4.12088
  8.0026             4.12050
  8.0688             4.12015
  8.1349             4.11977
  8.2011             4.11942
  8.2672             4.11904
  8.3333             4.11869
  8.3995             4.11831
  8.4656             4.11796
  8.5317             4.11758
  8.5979             4.11723
  8.6640             4.11685
  8.7302             4.11649
  8.7963             4.11612
  8.8624             4.11576
  8.9286             4.11538
  8.9947             4.11503
  9.0608             4.11465
  9.1270             4.11430
  9.1931             4.11392
  9.2593             4.11356
  9.3254             4.11318
  9.3915             4.11283
  9.4577             4.11245
  9.5238             4.11210
  9.5899             4.11171
  9.6561             4.11136
  9.7222             4.11098
  9.7884             4.11063
  9.8545             4.11024
  9.9206             4.10989
  9.9868             4.10951
 10.0529             4.10915
 10.1190             4.10877
 10.1852             4.10842
 10.2513             4.10804
 10.3175             4.10768
 10.3836             4.10730
 10.4497             4.10694
 10.5159             4.10656
 10.5820             4.10621
 10.6481             4.10582
 10.7143             4.10547
 10.7804             4.10508
 10.8466             4.10473
 10.9127             4.10434
 10.9788             4.10399
 11.0450             4.10360
 11.1111             4.10325
 11.1772             4.10286
 11.2434             4.10250
 11.3095             4.10211
 11.3757             4.10175
 11.4418             4.10136
 11.5079             4.10100
 11.5741             4.10060
 11.6402             4.10023
 11.7063             4.09983
 11.7725             4.09946
 11.8386             4.09905
 11.9048             4.09867
 11.9709             4.09826
 12.0370             4.09787
 12.1032             4.09744
 12.1693             4.09703
 12.2354             4.09659
 12.3016             4.09616
 12.3677             4.09569
 12.4339             4.09524
 12.5000             4.09474
 12.5661             4.09425
 12.6323             4.09370
 12.6984             4.09316
 12.7646             4.09255
 12.8307             4.09194
 12.8968             4.09125
 12.9630             4.09054
 13.0291             4.08973
 13.0952             4.08888
 13.1614             4.08791
 13.2275             4.08688
 13.2937             4.08569
 13.3598             4.08439
 13.4259             4.08290
 13.4921             4.08126
 13.5582             4.07935
 13.6243             4.07721
 13.6905             4.07473
 13.7566             4.07192
 13.8228             4.06865
 13.8889             4.06492
 13.9550             4.06055
 14.0212             4.05554
 14.0873             4.04968
 14.1534             4.04291
 14.2196             4.03497
 14.2857             4.02575
 14.3519             4.01494
 14.4180             4.00235
 14.4841             3.98756
 14.5503             3.97028
 14.6164             3.94996
 14.6825             3.92616
 14.7487             3.89814
 14.8148             3.86524
 14.8810             3.82647
 14.9471             3.78083
 15.0132             3.72699
 15.0794             3.66349
 15.1455             3.58845
 15.2116             3.49976
 15.2778             3.39476
 15.3439             3.27036
 15.4101             3.12269
 15.4762             2.94731
 15.5423             2.73818
 15.6085             2.49489
 15.6746             2.24914
 15.7407             1.96543
 15.8069             1.53842
 15.8730             0.90272
 15.9392             0.04420
 16.0053            -1.03571
 16.0714            -2.31737
 16.1376            -3.76542
 16.2037            -5.32965
 16.2698            -6.94997
 16.3360            -8.56424
 16.4021           -10.11413
 16.4683           -11.54913
 16.5344           -12.82742
 16.6005           -13.91629
 16.6667           -14.79082
 16.7328           -15.43327
 16.7989           -15.83154
 16.8651           -15.97879
 16.9312           -15.87243
 16.9974           -15.51446
 17.0635           -14.91114
 17.1296           -14.07409
 17.1958           -13.02071
 17.2619           -11.77575
 17.3280           -10.37210
 17.3942            -8.85216
 17.4603            -7.26771
 17.5265            -5.67944
 17.5926            -4.15343
 17.6587            -2.75578
 17.7249            -1.54488
 17.7910            -0.56543
 17.8571             0.15238
 17.9233             0.60020
 17.9894             0.81940
 18.0556             0.83258
 18.1217             0.63982
 18.1878             0.23034
 18.2540            -0.43794
 18.3201            -1.37167
 18.3862            -2.54205
 18.4524            -3.90983
 18.5185            -5.41844
 18.5847            -7.00429
 18.6508            -8.59977
 18.7169           -10.14364
 18.7831           -11.58114
 18.8492           -12.86883
 18.9153           -13.97114
 18.9815           -14.86271
 19.0476           -15.52393
 19.1138           -15.94299
 19.1799           -16.11163
 19.2460           -16.02782
 19.3122           -15.69214
 19.3783           -15.11138
 19.4444           -14.29554
 19.5106           -13.26238
 19.5767           -12.03478
 19.6429           -10.64601
 19.7090            -9.13647
 19.7751            -7.55881
 19.8413            -5.97210
 19.9074            -4.44451
 19.9735            -3.04153
 20.0397            -1.82572
 20.1058            -0.84178
 20.1720            -0.12398
 20.2381             0.35081
 20.3042             0.57773
 20.3704             0.50422
 20.4365             0.15249
 20.5026            -0.43307
 20.5688            -1.27856
 20.6349            -2.37813
 20.7011            -3.68930
 20.7672            -5.15988
 20.8333            -6.72402
 20.8995            -8.31488
 20.9656            -9.86754
 21.0317           -11.32624
 21.0979           -12.64381
 21.1640           -13.78361
 21.2302           -14.71726
 21.2963           -15.42460
 21.3624           -15.89160
 21.4286           -16.10989
 21.4947           -16.07570
 21.5608           -15.78963
 21.6270           -15.25677
 21.6931           -14.48683
 21.7593           -13.49548
 21.8254           -12.30471
 21.8915           -10.94502
 21.9577            -9.45536
 22.0238            -7.88523
 22.0899            -6.29242
 22.1561            -4.74275
 22.2222            -3.30239
 22.2884            -2.03389
 22.3545            -0.98504
 22.4206            -0.19282
 22.4868             0.33615
 22.5529             0.63575
 22.6190             0.69379
 22.6852             0.50124
 22.7513             0.08039
 22.8175            -0.59466
 22.8836            -1.53896
 22.9497            -2.71986
 23.0159            -4.09631
 23.0820            -5.60868
 23.1481            -7.19252
 23.2143            -8.77974
 23.2804           -10.30983
 23.3466           -11.72879
 23.4127           -12.99406
 23.4788           -14.07094
 23.5450           -14.93463
 23.6111           -15.56638
 23.6772           -15.95471
 23.7434           -16.09231
 23.8095           -15.97738
 23.8757           -15.61161
 23.9418           -15.00195
 24.0079           -14.15956
 24.0741           -13.10210
 24.1402           -11.85339
 24.2063           -10.44576
 24.2725            -8.91978
 24.3386            -7.32549
 24.4048            -5.72029
 24.4709            -4.16654
 24.5370            -2.72471
 24.6032            -1.44679
 24.6693            -0.36977
 24.7354             0.48430
 24.8016             1.11194
 24.8677             1.52400
 24.9339             1.77777
 25.0000             1.97761
 25.0661             2.16797
 25.1323             2.31647
 25.1984             2.41633
 25.2646             2.47212
 25.3307             2.48267
 25.3968             2.44824
 25.4630             2.36391
 25.5291             2.22604
 25.5952             2.02467
 25.6614             1.75124
 25.7275             1.38856
 25.7937             0.92152
 25.8598             0.32233
 25.9259            -0.43289
 25.9921            -1.37752
 26.0582            -2.45237
 26.1243            -3.81209
 26.1905            -5.86138
 26.2566            -8.69795
 26.3228           -12.05640
 26.3889           -15.44036
 26.4550           -18.35534
 26.5212           -20.46030
 26.5873           -21.67664
 26.6534           -22.16668
 26.7196           -22.24553
 26.7857           -22.21424
 26.8519           -22.22801
 26.9180           -22.20624
 26.9841           -21.88504
 27.0503           -20.93450
 27.1164           -19.12764
 27.1825           -16.45387
 27.2487           -13.17357
 27.3148            -9.74245
 27.3810            -6.68089
 27.4471            -4.35138
 27.5132            -2.79052
 27.5794            -1.65589
 27.6455            -0.65035
 27.7116             0.18237
 27.7778             0.84672
 27.8439             1.37766
 27.9101             1.80027
 27.9762             2.13634
 28.0423             2.40211
 28.1085             2.61142
 28.1746             2.77403
 28.2407             2.89850
 28.3069             2.99010
 28.3730             3.05385
 28.4392             3.09180
 28.5053             3.10644
 28.5714             3.09724
 28.6376             3.06464
 28.7037             3.00567
 28.7698             2.91874
 28.8360             2.79817
 28.9021             2.64012
 28.9683             2.43529
 29.0344             2.17756
 29.1005             1.85152
 29.1667             1.46704
 29.2328             1.03349
 29.2989             0.44907
 29.3651            -0.37263
 29.4312            -1.45657
 29.4974            -2.79446
 29.5635            -4.33604
 29.6296            -6.02770
 29.6958            -7.80246
 29.7619            -9.56759
 29.8280           -11.24062
 29.8942           -12.77412
 29.9603           -14.15223
 30.0265           -15.35286
 30.0926           -16.34525
 30.1587           -17.09464
 30.2249           -17.56959
 30.2910           -17.74779
 30.3571           -17.61837
 30.4233           -17.18581
 30.4894           -16.46119
 30.5556           -15.47597
 30.6217           -14.28717
 30.6878           -12.96660
 30.7540           -11.59822
 30.8201           -10.27140
 30.8862            -9.06173
 30.9524            -8.02131
 31.0185            -7.15358
 31.0847            -6.41050
 31.1508            -5.69271
 31.2169            -4.98287
 31.2831            -4.33089
 31.3492            -3.75422
 31.4153            -3.27533
 31.4815            -2.92238
 31.5476            -2.70902
 31.6138            -2.60487
 31.6799            -2.58441
 31.7460            -2.59465
 31.8122            -2.61232
 31.8783            -2.65247
 31.9444            -2.71663
 32.0106            -2.80160
 32.0767            -2.89652
 32.1429            -3.01644
 32.2090            -3.19717
 32.2751            -3.45544
 32.3413            -3.79642
 32.4074            -4.20946
 32.4735            -4.68571
 32.5397            -5.19677
 32.6058            -5.70171
 32.6720            -6.27135
 32.7381            -6.99140
 32.8042            -7.88827
 32.8704            -8.94048
 32.9365           -10.08900
 33.0026           -11.26252
 33.0688           -12.38540
 33.1349           -13.39219
 33.2011           -14.22644
 33.2672           -14.84757
 33.3333           -15.22481
 33.3995           -15.34146
 33.4656           -15.18619
 33.5317           -14.75881
 33.5979           -14.06736
 33.6640           -13.13541
 33.7302           -11.99021
 33.7963           -10.67695
 33.8624            -9.23730
 33.9286            -7.70277
 33.9947            -6.09664
 34.0608            -4.46719
 34.1270            -2.89992
 34.1931            -1.47571
 34.2593            -0.26247
 34.3254             0.69192
 34.3915             1.38809
 34.4577             1.88014
 34.5238             2.28166
 34.5899             2.64630
 34.6561             2.94534
 34.7222             3.18963
 34.7884             3.38744
 34.8545             3.54877
 34.9206             3.67918
 34.9868             3.78548
 35.0529             3.87131
 35.1190             3.94128
 35.1852             3.99772
 35.2513             4.04377
 35.3175             4.08086
 35.3836             4.11117
 35.4497             4.13553
 35.5159             4.15546
 35.5820             4.17144
 35.6481             4.18454
 35.7143             4.19499
 35.7804             4.20356
 35.8466             4.21034
 35.9127             4.21592
 35.9788             4.22029
 36.0450             4.22388
 36.1111             4.22665
 36.1772             4.22893
 36.2434             4.23063
 36.3095             4.23203
 36.3757             4.23303
 36.4418             4.23385
 36.5079             4.23438
 36.5741             4.23481
 36.6402             4.23504
 36.7063             4.23521
 36.7725             4.23523
 36.8386             4.23523
 36.9048             4.23511
 36.9709             4.23500
 37.0370             4.23479
 37.1032             4.23460
 37.1693             4.23433
 37.2354             4.23409
 37.3016             4.23379
 37.3677             4.23351
 37.4339             4.23318
 37.5000             4.23288
 37.5661             4.23253
 37.6323             4.23222
 37.6984             4.23186
 37.7646             4.23153
 37.8307             4.23117
 37.8968             4.23083
 37.9630             4.23047
 38.0291             4.23013
 38.0952             4.22976
 38.1614             4.22942
 38.2275             4.22904
 38.2937             4.22870
 38.3598             4.22833
 38.4259             4.22798
 38.4921             4.22761
 38.5582             4.22726
 38.6243             4.22689
 38.6905             4.22655
 38.7566             4.22618
 38.8228             4.22583
 38.8889             4.22546
 38.9550             4.22511
 39.0212             4.22474
 39.0873             4.22439
 39.1534             4.22402
 39.2196             4.22368
 39.2857             4.22331
 39.3519             4.22296
 39.4180             4.22259
 39.4841             4.22224
 39.5503             4.22188
 39.6164             4.22153
 39.6825             4.22117
 39.7487             4.22082
 39.8148             4.22045
 39.8810             4.22010
 39.9471             4.21974
 40.0132             4.21939
 40.0794             4.21903
 40.1455             4.21868
 40.2116             4.21832
 40.2778             4.21797
 40.3439             4.21761
 40.4101             4.21726
 40.4762             4.21689
 40.5423             4.21654
 40.6085             4.21618
 40.6746             4.21583
 40.7407             4.21547
 40.8069             4.21512
 40.8730             4.21476
 40.9392             4.21441
 41.0053             4.21405
 41.0714             4.21370
 41.1376             4.21334
 41.2037             4.21299
 41.2698             4.21263
 41.3360             4.21227
 41.4021             4.21191
 41.4683             4.21156
 41.5344             4.21120
 41.6005             4.21085
 41.6667             4.21048
 41.7328             4.21013
 41.7989             4.20977
 41.8651             4.20941
 41.9312             4.20905
 41.9974             4.20870
 42.0635             4.20834
 42.1296             4.20798
 42.1958             4.20762
 42.2619             4.20726
 42.3280             4.20690
 42.3942             4.20654
 42.4603             4.20618
 42.5265             4.20582
 42.5926             4.20546
 42.6587             4.20510
 42.7249             4.20474
 42.7910             4.20438
 42.8571             4.20402
 42.9233             4.20366
 42.9894             4.20329
 43.0556             4.20293
 43.1217             4.20257
 43.1878             4.20221
 43.2540             4.20184
 43.3201             4.20148
 43.3862             4.20111
 43.4524             4.20075
 43.5185             4.20039
 43.5847             4.20002
 43.6508             4.19966
 43.7169             4.19929
 43.7831             4.19893
 43.8492             4.19856
 43.9153             4.19820
 43.9815             4.19783
 44.0476             4.19747
 44.1138             4.19710
 44.1799             4.19673
 44.2460             4.19637
 44.3122             4.19600
 44.3783             4.19564
 44.4444             4.19527
 44.5106             4.19490
 44.5767             4.19453
 44.6429             4.19417
 44.7090             4.19380
 44.7751             4.19343
 44.8413             4.19307
 44.9074             4.19270
 44.9735             4.19233
 45.0397             4.19196
 45.1058             4.19160
 45.1720             4.19123
 45.2381             4.19086
 45.3042             4.19049
 45.3704             4.19013
 45.4365             4.18976
 45.5026             4.18939
 45.5688             4.18902
 45.6349             4.18865
 45.7011             4.18829
 45.7672             4.18792
 45.8333             4.18755
 45.8995             4.18718
 45.9656             4.18681
 46.0317             4.18645
 46.0979             4.18608
 46.1640             4.18571
 46.2302             4.18535
 46.2963             4.18498
 46.3624             4.18461
 46.4286             4.18424
 46.4947             4.18388
 46.5608             4.18351
 46.6270             4.18314
 46.6931             4.18278
 46.7593             4.18241
 46.8254             4.18204
 46.8915             4.18168
 46.9577             4.18131
 47.0238             4.18094
 47.0899             4.18058
 47.1561             4.18021
 47.2222             4.17985
 47.2884             4.17948
 47.3545             4.17911
 47.4206             4.17875
 47.4868             4.17838
 47.5529             4.17802
 47.6190             4.17765
 47.6852             4.17729
 47.7513             4.17692
 47.8175             4.17656
 47.8836             4.17619
 47.9497             4.17583
 48.0159             4.17546
 48.0820             4.17510
 48.1481             4.17473
 48.2143             4.17437
 48.2804             4.17401
 48.3466             4.17364
 48.4127             4.17328
 48.4788             4.17291
 48.5450             4.17255
 48.6111             4.17218
 48.6772             4.17182
 48.7434             4.17146
 48.8095             4.17109
 48.8757             4.17073
 48.9418             4.17037
 49.0079             4.17000
 49.0741             4.16964
 49.1402             4.16927
 49.2063             4.16891
 49.2725             4.16855
 49.3386             4.16819
 49.4048             4.16782
 49.4709             4.16746
 49.5370             4.16709
 49.6032             4.16673
 49.6693             4.16637
 49.7354             4.16601
 49.8016             4.16564
 49.8677             4.16528
 49.9339             4.16491
