#Distance(A) Planar-Average-Potential(eV)/Densitiy(e/A)
  0.0000             2.09959
  0.0670             2.09849
  0.1339             2.09741
  0.2009             2.09631
  0.2679             2.09524
  0.3348             2.09414
  0.4018             2.09307
  0.4688             2.09197
  0.5357             2.09090
  0.6027             2.08981
  0.6696             2.08874
  0.7366             2.08765
  0.8036             2.08659
  0.8705             2.08550
  0.9375             2.08444
  1.0045             2.08335
  1.0714             2.08229
  1.1384             2.08121
  1.2054             2.08015
  1.2723             2.07907
  1.3393             2.07802
  1.4062             2.07694
  1.4732             2.07589
  1.5402             2.07481
  1.6071             2.07377
  1.6741             2.07269
  1.7411             2.07165
  1.8080             2.07058
  1.8750             2.06954
  1.9420             2.06847
  2.0089             2.06743
  2.0759             2.06636
  2.1429             2.06532
  2.2098             2.06426
  2.2768             2.06322
  2.3438             2.06216
  2.4107             2.06113
  2.4777             2.06007
  2.5446             2.05904
  2.6116             2.05798
  2.6786             2.05695
  2.7455             2.05589
  2.8125             2.05486
  2.8795             2.05380
  2.9464             2.05278
  3.0134             2.05172
  3.0804             2.05069
  3.1473             2.04963
  3.2143             2.04861
  3.2812             2.04755
  3.3482             2.04652
  3.4152             2.04547
  3.4821             2.04444
  3.5491             2.04338
  3.6161             2.04236
  3.6830             2.04130
  3.7500             2.04027
  3.8170             2.03921
  3.8839             2.03818
  3.9509             2.03712
  4.0179             2.03609
  4.0848             2.03503
  4.1518             2.03400
  4.2188             2.03293
  4.2857             2.03190
  4.3527             2.03083
  4.4196             2.02979
  4.4866             2.02872
  4.5536             2.02769
  4.6205             2.02661
  4.6875             2.02557
  4.7545             2.02449
  4.8214             2.02345
  4.8884             2.02237
  4.9554             2.02133
  5.0223             2.02024
  5.0893             2.01920
  5.1562             2.01811
  5.2232             2.01706
  5.2902             2.01596
  5.3571             2.01491
  5.4241             2.01382
  5.4911             2.01276
  5.5580             2.01166
  5.6250             2.01061
  5.6920             2.00950
  5.7589             2.00845
  5.8259             2.00734
  5.8929             2.00627
  5.9598             2.00516
  6.0268             2.00410
  6.0938             2.00298
  6.1607             2.00192
  6.2277             2.00080
  6.2946             1.99974
  6.3616             1.99861
  6.4286             1.99754
  6.4955             1.99642
  6.5625             1.99535
  6.6295             1.99422
  6.6964             1.99315
  6.7634             1.99202
  6.8304             1.99095
  6.8973             1.98982
  6.9643             1.98875
  7.0312             1.98762
  7.0982             1.98655
  7.1652             1.98541
  7.2321             1.98434
  7.2991             1.98321
  7.3661             1.98214
  7.4330             1.98100
  7.5000             1.97993
  7.5670             1.97879
  7.6339             1.97773
  7.7009             1.97659
  7.7679             1.97553
  7.8348             1.97439
  7.9018             1.97333
  7.9688             1.97219
  8.0357             1.97114
  8.1027             1.96999
  8.1696             1.96894
  8.2366             1.96780
  8.3036             1.96675
  8.3705             1.96561
  8.4375             1.96457
  8.5045             1.96343
  8.5714             1.96239
  8.6384             1.96125
  8.7054             1.96021
  8.7723             1.95907
  8.8393             1.95804
  8.9062             1.95690
  8.9732             1.95587
  9.0402             1.95473
  9.1071             1.95371
  9.1741             1.95256
  9.2411             1.95154
  9.3080             1.95040
  9.3750             1.94939
  9.4420             1.94824
  9.5089             1.94723
  9.5759             1.94609
  9.6429             1.94508
  9.7098             1.94393
  9.7768             1.94292
  9.8438             1.94177
  9.9107             1.94077
  9.9777             1.93960
 10.0446             1.93861
 10.1116             1.93744
 10.1786             1.93644
 10.2455             1.93525
 10.3125             1.93425
 10.3795             1.93304
 10.4464             1.93204
 10.5134             1.93081
 10.5804             1.92978
 10.6473             1.92851
 10.7143             1.92745
 10.7812             1.92612
 10.8482             1.92501
 10.9152             1.92358
 10.9821             1.92238
 11.0491             1.92081
 11.1161             1.91946
 11.1830             1.91767
 11.2500             1.91606
 11.3170             1.91391
 11.3839             1.91189
 11.4509             1.90919
 11.5179             1.90651
 11.5848             1.90293
 11.6518             1.89918
 11.7188             1.89420
 11.7857             1.88875
 11.8527             1.88154
 11.9196             1.87336
 11.9866             1.86263
 12.0536             1.85009
 12.1205             1.83376
 12.1875             1.81427
 12.2545             1.78906
 12.3214             1.75851
 12.3884             1.71918
 12.4554             1.67102
 12.5223             1.60926
 12.5893             1.53303
 12.6562             1.43554
 12.7232             1.31460
 12.7902             1.16028
 12.8571             0.96826
 12.9241             0.72367
 12.9911             0.41889
 13.0580             0.03124
 13.1250            -0.45147
 13.1920            -1.06462
 13.2589            -1.82483
 13.3259            -2.78885
 13.3929            -3.85723
 13.4598            -5.19742
 13.5268            -7.27521
 13.5938           -10.15738
 13.6607           -13.55053
 13.7277           -16.92122
 13.7946           -19.77218
 13.8616           -21.76957
 13.9286           -22.87038
 13.9955           -23.26729
 14.0625           -23.30242
 14.1295           -23.27015
 14.1964           -23.30059
 14.2634           -23.26246
 14.3304           -22.86089
 14.3973           -21.75413
 14.4643           -19.75065
 14.5312           -16.89501
 14.5982           -13.52226
 14.6652           -10.13018
 14.7321            -7.25140
 14.7991            -5.17742
 14.8661            -3.83869
 14.9330            -2.76863
 15.0000            -1.80288
 15.0670            -1.04040
 15.1339            -0.42427
 15.2009             0.06177
 15.2679             0.45297
 15.3348             0.76103
 15.4018             1.00840
 15.4688             1.20205
 15.5357             1.35646
 15.6027             1.47504
 15.6696             1.56713
 15.7366             1.63360
 15.8036             1.68027
 15.8705             1.70605
 15.9375             1.71411
 16.0045             1.70155
 16.0714             1.66915
 16.1384             1.61191
 16.2054             1.52803
 16.2723             1.40965
 16.3393             1.25160
 16.4062             1.04182
 16.4732             0.77007
 16.5402             0.42268
 16.6071             0.02435
 16.6741            -0.52812
 16.7411            -1.35765
 16.8080            -2.46436
 16.8750            -3.76697
 16.9420            -5.14284
 17.0089            -6.45737
 17.0759            -7.61270
 17.1429            -8.57722
 17.2098            -9.36805
 17.2768           -10.03528
 17.3438           -10.61895
 17.4107           -11.12595
 17.4777           -11.51730
 17.5446           -11.73325
 17.6116           -11.71900
 17.6786           -11.46534
 17.7455           -11.01831
 17.8125           -10.48551
 17.8795            -9.99764
 17.9464            -9.67473
 18.0134            -9.55285
 18.0804            -9.57287
 18.1473            -9.56650
 18.2143            -9.56226
 18.2812            -9.72325
 18.3482           -10.08377
 18.4152           -10.59134
 18.4821           -11.11623
 18.5491           -11.53182
 18.6161           -11.73874
 18.6830           -11.70454
 18.7500           -11.44723
 18.8170           -11.02747
 18.8839           -10.50118
 18.9509            -9.90115
 19.0179            -9.21048
 19.0848            -8.38620
 19.1518            -7.37939
 19.2188            -6.18338
 19.2857            -4.83955
 19.3527            -3.45926
 19.4196            -2.17630
 19.4866            -1.10980
 19.5536            -0.32635
 19.6205             0.19485
 19.6875             0.59451
 19.7545             0.94432
 19.8214             1.21876
 19.8884             1.43691
 19.9554             1.60754
 20.0223             1.74299
 20.0893             1.84893
 20.1562             1.93303
 20.2232             1.99876
 20.2902             2.05098
 20.3571             2.09171
 20.4241             2.12408
 20.4911             2.14922
 20.5580             2.16920
 20.6250             2.18460
 20.6920             2.19681
 20.7589             2.20612
 20.8259             2.21345
 20.8929             2.21892
 20.9598             2.22317
 21.0268             2.22623
 21.0938             2.22854
 21.1607             2.23007
 21.2277             2.23116
 21.2946             2.23173
 21.3616             2.23204
 21.4286             2.23200
 21.4955             2.23182
 21.5625             2.23139
 21.6295             2.23089
 21.6964             2.23023
 21.7634             2.22952
 21.8304             2.22870
 21.8973             2.22787
 21.9643             2.22696
 22.0312             2.22604
 22.0982             2.22506
 22.1652             2.22409
 22.2321             2.22308
 22.2991             2.22207
 22.3661             2.22103
 22.4330             2.22001
 22.5000             2.21896
 22.5670             2.21792
 22.6339             2.21686
 22.7009             2.21580
 22.7679             2.21474
 22.8348             2.21368
 22.9018             2.21262
 22.9688             2.21156
 23.0357             2.21049
 23.1027             2.20943
 23.1696             2.20837
 23.2366             2.20730
 23.3036             2.20624
 23.3705             2.20518
 23.4375             2.20411
 23.5045             2.20305
 23.5714             2.20199
 23.6384             2.20093
 23.7054             2.19987
 23.7723             2.19881
 23.8393             2.19776
 23.9062             2.19670
 23.9732             2.19565
 24.0402             2.19459
 24.1071             2.19354
 24.1741             2.19248
 24.2411             2.19144
 24.3080             2.19038
 24.3750             2.18933
 24.4420             2.18828
 24.5089             2.18724
 24.5759             2.18618
 24.6429             2.18514
 24.7098             2.18409
 24.7768             2.18305
 24.8438             2.18200
 24.9107             2.18096
 24.9777             2.17991
 25.0446             2.17887
 25.1116             2.17782
 25.1786             2.17678
 25.2455             2.17573
 25.3125             2.17469
 25.3795             2.17364
 25.4464             2.17260
 25.5134             2.17155
 25.5804             2.17052
 25.6473             2.16946
 25.7143             2.16843
 25.7812             2.16737
 25.8482             2.16633
 25.9152             2.16528
 25.9821             2.16424
 26.0491             2.16318
 26.1161             2.16214
 26.1830             2.16109
 26.2500             2.16004
 26.3170             2.15898
 26.3839             2.15794
 26.4509             2.15688
 26.5179             2.15583
 26.5848             2.15477
 26.6518             2.15372
 26.7188             2.15265
 26.7857             2.15160
 26.8527             2.15053
 26.9196             2.14948
 26.9866             2.14841
 27.0536             2.14735
 27.1205             2.14628
 27.1875             2.14522
 27.2545             2.14414
 27.3214             2.14308
 27.3884             2.14200
 27.4554             2.14094
 27.5223             2.13985
 27.5893             2.13879
 27.6562             2.13770
 27.7232             2.13663
 27.7902             2.13554
 27.8571             2.13447
 27.9241             2.13338
 27.9911             2.13231
 28.0580             2.13122
 28.1250             2.13014
 28.1920             2.12905
 28.2589             2.12797
 28.3259             2.12687
 28.3929             2.12579
 28.4598             2.12470
 28.5268             2.12362
 28.5938             2.12252
 28.6607             2.12143
 28.7277             2.12033
 28.7946             2.11925
 28.8616             2.11815
 28.9286             2.11706
 28.9955             2.11596
 29.0625             2.11488
 29.1295             2.11378
 29.1964             2.11269
 29.2634             2.11159
 29.3304             2.11050
 29.3973             2.10940
 29.4643             2.10832
 29.5312             2.10721
 29.5982             2.10613
 29.6652             2.10503
 29.7321             2.10395
 29.7991             2.10284
 29.8661             2.10176
 29.9330             2.10066
