#Distance(A) Planar-Average-Potential(eV)/Densitiy(e/A)
  0.0000             0.00001
  0.0661             0.00001
  0.1323             0.00001
  0.1984             0.00001
  0.2646             0.00002
  0.3307             0.00002
  0.3968             0.00002
  0.4630             0.00002
  0.5291             0.00002
  0.5952             0.00002
  0.6614             0.00003
  0.7275             0.00003
  0.7937             0.00003
  0.8598             0.00003
  0.9259             0.00003
  0.9921             0.00004
  1.0582             0.00004
  1.1243             0.00004
  1.1905             0.00004
  1.2566             0.00004
  1.3228             0.00005
  1.3889             0.00005
  1.4550             0.00005
  1.5212             0.00005
  1.5873             0.00005
  1.6534             0.00006
  1.7196             0.00006
  1.7857             0.00006
  1.8519             0.00006
  1.9180             0.00006
  1.9841             0.00006
  2.0503             0.00007
  2.1164             0.00007
  2.1825             0.00007
  2.2487             0.00007
  2.3148             0.00007
  2.3810             0.00007
  2.4471             0.00007
  2.5132             0.00007
  2.5794             0.00007
  2.6455             0.00008
  2.7116             0.00008
  2.7778             0.00008
  2.8439             0.00008
  2.9101             0.00008
  2.9762             0.00008
  3.0423             0.00008
  3.1085             0.00008
  3.1746             0.00008
  3.2407             0.00008
  3.3069             0.00008
  3.3730             0.00007
  3.4392             0.00007
  3.5053             0.00007
  3.5714             0.00007
  3.6376             0.00007
  3.7037             0.00007
  3.7698             0.00006
  3.8360             0.00006
  3.9021             0.00006
  3.9683             0.00006
  4.0344             0.00005
  4.1005             0.00005
  4.1667             0.00005
  4.2328             0.00004
  4.2989             0.00004
  4.3651             0.00004
  4.4312             0.00003
  4.4974             0.00003
  4.5635             0.00002
  4.6296             0.00002
  4.6958             0.00001
  4.7619             0.00001
  4.8280             0.00000
  4.8942            -0.00000
  4.9603            -0.00001
  5.0265            -0.00001
  5.0926            -0.00002
  5.1587            -0.00002
  5.2249            -0.00003
  5.2910            -0.00004
  5.3571            -0.00004
  5.4233            -0.00005
  5.4894            -0.00005
  5.5556            -0.00006
  5.6217            -0.00007
  5.6878            -0.00008
  5.7540            -0.00008
  5.8201            -0.00009
  5.8862            -0.00009
  5.9524            -0.00010
  6.0185            -0.00011
  6.0847            -0.00012
  6.1508            -0.00012
  6.2169            -0.00013
  6.2831            -0.00014
  6.3492            -0.00014
  6.4153            -0.00015
  6.4815            -0.00016
  6.5476            -0.00016
  6.6138            -0.00017
  6.6799            -0.00018
  6.7460            -0.00018
  6.8122            -0.00019
  6.8783            -0.00019
  6.9444            -0.00020
  7.0106            -0.00020
  7.0767            -0.00021
  7.1429            -0.00021
  7.2090            -0.00022
  7.2751            -0.00022
  7.3413            -0.00023
  7.4074            -0.00023
  7.4735            -0.00023
  7.5397            -0.00023
  7.6058            -0.00024
  7.6720            -0.00024
  7.7381            -0.00024
  7.8042            -0.00024
  7.8704            -0.00024
  7.9365            -0.00024
  8.0026            -0.00024
  8.0688            -0.00024
  8.1349            -0.00024
  8.2011            -0.00023
  8.2672            -0.00023
  8.3333            -0.00023
  8.3995            -0.00023
  8.4656            -0.00022
  8.5317            -0.00022
  8.5979            -0.00021
  8.6640            -0.00020
  8.7302            -0.00019
  8.7963            -0.00019
  8.8624            -0.00018
  8.9286            -0.00017
  8.9947            -0.00016
  9.0608            -0.00015
  9.1270            -0.00013
  9.1931            -0.00012
  9.2593            -0.00011
  9.3254            -0.00009
  9.3915            -0.00008
  9.4577            -0.00006
  9.5238            -0.00005
  9.5899            -0.00003
  9.6561            -0.00001
  9.7222             0.00001
  9.7884             0.00003
  9.8545             0.00005
  9.9206             0.00007
  9.9868             0.00009
 10.0529             0.00012
 10.1190             0.00014
 10.1852             0.00016
 10.2513             0.00019
 10.3175             0.00022
 10.3836             0.00024
 10.4497             0.00027
 10.5159             0.00030
 10.5820             0.00033
 10.6481             0.00035
 10.7143             0.00039
 10.7804             0.00042
 10.8466             0.00045
 10.9127             0.00048
 10.9788             0.00051
 11.0450             0.00055
 11.1111             0.00058
 11.1772             0.00061
 11.2434             0.00065
 11.3095             0.00069
 11.3757             0.00072
 11.4418             0.00076
 11.5079             0.00080
 11.5741             0.00084
 11.6402             0.00088
 11.7063             0.00093
 11.7725             0.00097
 11.8386             0.00102
 11.9048             0.00107
 11.9709             0.00113
 12.0370             0.00118
 12.1032             0.00125
 12.1693             0.00131
 12.2354             0.00139
 12.3016             0.00147
 12.3677             0.00156
 12.4339             0.00167
 12.5000             0.00178
 12.5661             0.00191
 12.6323             0.00206
 12.6984             0.00224
 12.7646             0.00244
 12.8307             0.00267
 12.8968             0.00293
 12.9630             0.00325
 13.0291             0.00361
 13.0952             0.00404
 13.1614             0.00454
 13.2275             0.00513
 13.2937             0.00582
 13.3598             0.00664
 13.4259             0.00759
 13.4921             0.00872
 13.5582             0.01006
 13.6243             0.01163
 13.6905             0.01349
 13.7566             0.01568
 13.8228             0.01827
 13.8889             0.02133
 13.9550             0.02494
 14.0212             0.02921
 14.0873             0.03426
 14.1534             0.04025
 14.2196             0.04734
 14.2857             0.05574
 14.3519             0.06568
 14.4180             0.07745
 14.4841             0.09141
 14.5503             0.10796
 14.6164             0.12764
 14.6825             0.15106
 14.7487             0.17894
 14.8148             0.21214
 14.8810             0.25165
 14.9471             0.29870
 15.0132             0.35480
 15.0794             0.42184
 15.1455             0.50215
 15.2116             0.59859
 15.2778             0.71459
 15.3439             0.85424
 15.4101             1.02251
 15.4762             1.22568
 15.5423             1.47201
 15.6085             1.77251
 15.6746             2.14163
 15.7407             2.59715
 15.8069             3.15869
 15.8730             3.85145
 15.9392             4.72469
 16.0053             5.84721
 16.0714             7.28817
 16.1376             9.09807
 16.2037            11.29525
 16.2698            13.86067
 16.3360            16.74015
 16.4021            19.85041
 16.4683            23.08464
 16.5344            26.31532
 16.6005            29.39567
 16.6667            32.16336
 16.7328            34.45037
 16.7989            36.10022
 16.8651            36.98974
 16.9312            37.04967
 16.9974            36.27760
 17.0635            34.73882
 17.1296            32.55479
 17.1958            29.88307
 17.2619            26.89502
 17.3280            23.75740
 17.3942            20.62116
 17.4603            17.61700
 17.5265            14.85396
 17.5926            12.41738
 17.6587            10.36429
 17.7249             8.71808
 17.7910             7.46642
 17.8571             6.56622
 17.9233             5.95703
 17.9894             5.58012
 18.0556             5.39822
 18.1217             5.40277
 18.1878             5.59510
 18.2540             5.99181
 18.3201             6.63927
 18.3862             7.60051
 18.4524             8.93505
 18.5185            10.68050
 18.5847            12.84094
 18.6508            15.38362
 18.7169            18.24206
 18.7831            21.32165
 18.8492            24.50396
 18.9153            27.64896
 18.9815            30.59755
 19.0476            33.17810
 19.1138            35.21988
 19.1799            36.57308
 19.2460            37.13095
 19.3122            36.84796
 19.3783            35.74816
 19.4444            33.92086
 19.5106            31.50505
 19.5767            28.66776
 19.6429            25.58253
 19.7090            22.41339
 19.7751            19.30618
 19.8413            16.38506
 19.9074            13.75083
 19.9735            11.47760
 20.0397             9.60776
 20.1058             8.14783
 20.1720             7.06956
 20.2381             6.31878
 20.3042             5.83180
 20.3704             5.55539
 20.4365             5.46388
 20.5026             5.55438
 20.5688             5.83113
 20.6349             6.32262
 20.7011             7.08418
 20.7672             8.18025
 20.8333             9.66434
 20.8995            11.56289
 20.9656            13.86676
 21.0317            16.53061
 21.0979            19.47725
 21.1640            22.60280
 21.2302            25.78020
 21.2963            28.86117
 21.3624            31.68023
 21.4286            34.06386
 21.4947            35.84701
 21.5608            36.89452
 21.6270            37.12235
 21.6931            36.51224
 21.7593            35.11513
 21.8254            33.04198
 21.8915            30.44531
 21.9577            27.49707
 22.0238            24.36905
 22.0899            21.21977
 22.1561            18.18821
 22.2222            15.39118
 22.2884            12.92102
 22.3545            10.84131
 22.4206             9.18187
 22.4868             7.93655
 22.5529             7.06762
 22.6190             6.51813
 22.6852             6.22994
 22.7513             6.16244
 22.8175             6.30542
 22.8836             6.67426
 22.9497             7.30947
 23.0159             8.26625
 23.0820             9.59632
 23.1481            11.33117
 23.2143            13.47115
 23.2804            15.98215
 23.3466            18.79792
 23.4127            21.82465
 23.4788            24.94450
 23.5450            28.01782
 23.6111            30.88611
 23.6772            33.37939
 23.7434            35.33016
 23.8095            36.59318
 23.8757            37.06672
 23.9418            36.70928
 24.0079            35.54660
 24.0741            33.66657
 24.1402            31.20392
 24.2063            28.31965
 24.2725            25.18117
 24.3386            21.94778
 24.4048            18.76283
 24.4709            15.75017
 24.5370            13.01172
 24.6032            10.62313
 24.6693             8.62783
 24.7354             7.03253
 24.8016             5.80803
 24.8677             4.89795
 24.9339             4.23480
 25.0000             3.75931
 25.0661             3.43471
 25.1323             3.24360
 25.1984             3.17385
 25.2646             3.21723
 25.3307             3.37044
 25.3968             3.63490
 25.4630             4.01586
 25.5291             4.52114
 25.5952             5.15931
 25.6614             5.93493
 25.7275             6.84322
 25.7937             7.88546
 25.8598             9.07357
 25.9259            10.42093
 25.9921            11.93167
 26.0582            13.59217
 26.1243            15.36675
 26.1905            17.19843
 26.2566            19.01341
 26.3228            20.72744
 26.3889            22.25151
 26.4550            23.49791
 26.5212            24.38658
 26.5873            24.85188
 26.6534            24.84978
 26.7196            24.36519
 26.7857            23.41789
 26.8519            22.06496
 26.9180            20.39760
 26.9841            18.53180
 27.0503            16.59357
 27.1164            14.70160
 27.1825            12.95119
 27.2487            11.40292
 27.3148            10.07900
 27.3810             8.96809
 27.4471             8.03693
 27.5132             7.24579
 27.5794             6.56358
 27.6455             5.97123
 27.7116             5.45220
 27.7778             4.99335
 27.8439             4.58651
 27.9101             4.22841
 27.9762             3.91948
 28.0423             3.66209
 28.1085             3.45894
 28.1746             3.31180
 28.2407             3.22112
 28.3069             3.18750
 28.3730             3.21249
 28.4392             3.29865
 28.5053             3.44942
 28.5714             3.66875
 28.6376             3.95970
 28.7037             4.32320
 28.7698             4.75823
 28.8360             5.26263
 28.9021             5.83426
 28.9683             6.47232
 29.0344             7.17806
 29.1005             7.95307
 29.1667             8.79175
 29.2328             9.67698
 29.2989            10.57945
 29.3651            11.45872
 29.4312            12.26679
 29.4974            12.95438
 29.5635            13.47953
 29.6296            13.81657
 29.6958            13.96281
 29.7619            13.94025
 29.8280            13.79067
 29.8942            13.56499
 29.9603            13.30971
 30.0265            13.05462
 30.0926            12.80564
 30.1587            12.54509
 30.2249            12.23880
 30.2910            11.84755
 30.3571            11.33877
 30.4233            10.69538
 30.4894             9.91969
 30.5556             9.03323
 30.6217             8.07267
 30.6878             7.08291
 30.7540             6.10973
 30.8201             5.19335
 30.8862             4.36338
 30.9524             3.63539
 31.0185             3.00998
 31.0847             2.47910
 31.1508             2.03289
 31.2169             1.66117
 31.2831             1.35388
 31.3492             1.10150
 31.4153             0.89521
 31.4815             0.72710
 31.5476             0.59033
 31.6138             0.47913
 31.6799             0.38877
 31.7460             0.31539
 31.8122             0.25588
 31.8783             0.20767
 31.9444             0.16864
 32.0106             0.13705
 32.0767             0.11145
 32.1429             0.09067
 32.2090             0.07376
 32.2751             0.06001
 32.3413             0.04882
 32.4074             0.03973
 32.4735             0.03235
 32.5397             0.02636
 32.6058             0.02150
 32.6720             0.01754
 32.7381             0.01430
 32.8042             0.01167
 32.8704             0.00951
 32.9365             0.00776
 33.0026             0.00635
 33.0688             0.00520
 33.1349             0.00427
 33.2011             0.00351
 33.2672             0.00289
 33.3333             0.00239
 33.3995             0.00198
 33.4656             0.00165
 33.5317             0.00138
 33.5979             0.00117
 33.6640             0.00100
 33.7302             0.00086
 33.7963             0.00075
 33.8624             0.00066
 33.9286             0.00059
 33.9947             0.00054
 34.0608             0.00050
 34.1270             0.00046
 34.1931             0.00044
 34.2593             0.00042
 34.3254             0.00041
 34.3915             0.00040
 34.4577             0.00039
 34.5238             0.00038
 34.5899             0.00038
 34.6561             0.00038
 34.7222             0.00038
 34.7884             0.00038
 34.8545             0.00039
 34.9206             0.00039
 34.9868             0.00039
 35.0529             0.00039
 35.1190             0.00039
 35.1852             0.00039
 35.2513             0.00040
 35.3175             0.00040
 35.3836             0.00040
 35.4497             0.00040
 35.5159             0.00039
 35.5820             0.00039
 35.6481             0.00039
 35.7143             0.00039
 35.7804             0.00039
 35.8466             0.00039
 35.9127             0.00039
 35.9788             0.00038
 36.0450             0.00038
 36.1111             0.00037
 36.1772             0.00037
 36.2434             0.00037
 36.3095             0.00036
 36.3757             0.00036
 36.4418             0.00035
 36.5079             0.00034
 36.5741             0.00034
 36.6402             0.00033
 36.7063             0.00032
 36.7725             0.00031
 36.8386             0.00031
 36.9048             0.00030
 36.9709             0.00029
 37.0370             0.00028
 37.1032             0.00027
 37.1693             0.00027
 37.2354             0.00026
 37.3016             0.00025
 37.3677             0.00024
 37.4339             0.00023
 37.5000             0.00022
 37.5661             0.00021
 37.6323             0.00020
 37.6984             0.00019
 37.7646             0.00018
 37.8307             0.00018
 37.8968             0.00017
 37.9630             0.00016
 38.0291             0.00015
 38.0952             0.00014
 38.1614             0.00013
 38.2275             0.00012
 38.2937             0.00011
 38.3598             0.00010
 38.4259             0.00010
 38.4921             0.00009
 38.5582             0.00008
 38.6243             0.00007
 38.6905             0.00006
 38.7566             0.00005
 38.8228             0.00005
 38.8889             0.00004
 38.9550             0.00003
 39.0212             0.00003
 39.0873             0.00002
 39.1534             0.00001
 39.2196             0.00000
 39.2857            -0.00000
 39.3519            -0.00001
 39.4180            -0.00001
 39.4841            -0.00002
 39.5503            -0.00002
 39.6164            -0.00003
 39.6825            -0.00004
 39.7487            -0.00004
 39.8148            -0.00005
 39.8810            -0.00005
 39.9471            -0.00006
 40.0132            -0.00006
 40.0794            -0.00006
 40.1455            -0.00007
 40.2116            -0.00007
 40.2778            -0.00007
 40.3439            -0.00008
 40.4101            -0.00008
 40.4762            -0.00008
 40.5423            -0.00008
 40.6085            -0.00008
 40.6746            -0.00009
 40.7407            -0.00009
 40.8069            -0.00009
 40.8730            -0.00009
 40.9392            -0.00009
 41.0053            -0.00009
 41.0714            -0.00009
 41.1376            -0.00009
 41.2037            -0.00009
 41.2698            -0.00009
 41.3360            -0.00009
 41.4021            -0.00009
 41.4683            -0.00010
 41.5344            -0.00009
 41.6005            -0.00009
 41.6667            -0.00009
 41.7328            -0.00009
 41.7989            -0.00009
 41.8651            -0.00009
 41.9312            -0.00009
 41.9974            -0.00009
 42.0635            -0.00009
 42.1296            -0.00008
 42.1958            -0.00008
 42.2619            -0.00008
 42.3280            -0.00008
 42.3942            -0.00008
 42.4603            -0.00007
 42.5265            -0.00007
 42.5926            -0.00007
 42.6587            -0.00007
 42.7249            -0.00007
 42.7910            -0.00006
 42.8571            -0.00006
 42.9233            -0.00006
 42.9894            -0.00006
 43.0556            -0.00005
 43.1217            -0.00005
 43.1878            -0.00005
 43.2540            -0.00005
 43.3201            -0.00004
 43.3862            -0.00004
 43.4524            -0.00004
 43.5185            -0.00004
 43.5847            -0.00003
 43.6508            -0.00003
 43.7169            -0.00003
 43.7831            -0.00003
 43.8492            -0.00003
 43.9153            -0.00002
 43.9815            -0.00002
 44.0476            -0.00002
 44.1138            -0.00002
 44.1799            -0.00001
 44.2460            -0.00001
 44.3122            -0.00001
 44.3783            -0.00001
 44.4444            -0.00001
 44.5106            -0.00000
 44.5767            -0.00000
 44.6429            -0.00000
 44.7090            -0.00000
 44.7751             0.00000
 44.8413             0.00000
 44.9074             0.00000
 44.9735             0.00000
 45.0397             0.00001
 45.1058             0.00001
 45.1720             0.00001
 45.2381             0.00001
 45.3042             0.00001
 45.3704             0.00001
 45.4365             0.00001
 45.5026             0.00001
 45.5688             0.00001
 45.6349             0.00001
 45.7011             0.00001
 45.7672             0.00001
 45.8333             0.00001
 45.8995             0.00001
 45.9656             0.00001
 46.0317             0.00001
 46.0979             0.00001
 46.1640             0.00001
 46.2302             0.00001
 46.2963             0.00001
 46.3624             0.00001
 46.4286             0.00001
 46.4947             0.00001
 46.5608             0.00001
 46.6270             0.00001
 46.6931             0.00001
 46.7593             0.00001
 46.8254             0.00001
 46.8915             0.00001
 46.9577             0.00001
 47.0238             0.00001
 47.0899             0.00001
 47.1561             0.00001
 47.2222             0.00001
 47.2884             0.00001
 47.3545             0.00000
 47.4206             0.00000
 47.4868             0.00000
 47.5529             0.00000
 47.6190             0.00000
 47.6852             0.00000
 47.7513             0.00000
 47.8175             0.00000
 47.8836            -0.00000
 47.9497            -0.00000
 48.0159            -0.00000
 48.0820            -0.00000
 48.1481            -0.00000
 48.2143            -0.00000
 48.2804            -0.00000
 48.3466            -0.00000
 48.4127            -0.00000
 48.4788            -0.00000
 48.5450            -0.00000
 48.6111            -0.00000
 48.6772            -0.00000
 48.7434            -0.00000
 48.8095            -0.00000
 48.8757            -0.00000
 48.9418            -0.00000
 49.0079            -0.00000
 49.0741            -0.00000
 49.1402            -0.00000
 49.2063            -0.00000
 49.2725            -0.00000
 49.3386            -0.00000
 49.4048             0.00000
 49.4709             0.00000
 49.5370             0.00000
 49.6032             0.00000
 49.6693             0.00000
 49.7354             0.00000
 49.8016             0.00001
 49.8677             0.00001
 49.9339             0.00001
